Jaz Data File
++++++++++++++++++++++++++++++++++++
Date: Mon Apr 04 15:36:00 2011
User: jaz
Dark Spectrum Present: Yes
Reference Spectrum Present: Yes
Processed Spectrum Present: Yes
Spectrometers: JAZA1276
Integration Time (usec): 30000 (JAZA1276)
Spectra Averaged: 5 (JAZA1276)
Boxcar Smoothing: 0 (JAZA1276)
Correct for Electrical Dark: No (JAZA1276)
Strobe/Lamp Enabled: Yes (JAZA1276)
Correct for Detector Non-linearity: No (JAZA1276)
Correct for Stray Light: No (JAZA1276)
Number of Pixels in Processed Spectrum: 2048
>>>>>Begin Processed Spectral Data<<<<<
W	D	R	S	P
340.302521	0.000000	0.000000	0.000000	0.000000
340.678955	0.000000	0.000000	0.000000	0.000000
341.055359	911.028809	883.338013	713.962280	711.667969
341.431732	913.797852	910.105774	738.884094	4737.542969
341.808075	939.642700	959.026245	729.192261	-1085.717041
342.184387	950.719055	920.259094	752.729431	649.999573
342.560608	956.718750	949.334473	775.343628	2456.233887
342.936859	956.257202	948.411438	770.266968	2370.581543
343.313049	972.871704	948.411438	788.266052	754.716431
343.689240	974.256226	954.411133	804.880554	853.488953
344.065338	957.180298	961.333862	787.343079	-4088.951172
344.441437	971.025696	985.332642	778.574219	-1345.161133
344.817505	956.257141	972.410156	788.727600	-1037.140991
345.193512	941.950195	969.641113	794.265747	-533.331726
345.569489	974.256226	973.794739	779.958862	42102.472656
345.945435	944.257813	953.488098	777.189697	-1809.999390
346.321381	958.103210	938.719604	778.574280	926.189514
346.697266	987.640259	959.487793	765.190430	790.161072
347.073090	950.719055	963.179871	760.113647	-1529.638306
347.448883	972.871704	971.025696	759.190674	11575.301758
347.824646	949.334473	957.641785	742.114624	-2494.427246
348.200409	944.719360	929.489380	786.881531	1036.362671
348.576080	954.872681	967.333618	760.113647	-1562.956543
348.951782	967.795044	933.181458	781.343323	538.666260
349.327423	946.103882	953.026550	779.035767	-2413.348389
349.703033	934.104492	969.179565	749.960327	-525.000061
350.078583	947.026855	998.716492	753.652527	-374.106567
350.454071	912.874878	978.409973	742.576172	-259.858795
350.829590	935.489075	998.255005	765.651855	-270.588226
351.205048	921.182129	965.026001	751.806458	-386.315491
351.580475	900.875488	988.101685	774.420654	-144.973465
351.955872	949.334473	968.718079	751.806458	-1019.046814
352.331207	919.797546	965.487488	766.113403	-336.363190
352.706543	924.874207	989.024719	770.266968	-241.007019
353.081787	927.181824	955.334167	760.575195	-591.803772
353.457062	934.566040	992.716797	758.729187	-302.381012
353.832245	921.182129	970.102539	746.729797	-356.604401
354.207458	925.335754	997.793457	784.112427	-194.904510
354.582581	903.644531	951.180542	772.574585	-275.727692
354.957672	911.951843	957.180176	733.345886	-394.898376
355.332733	924.412781	998.716492	750.883423	-233.540634
355.707764	935.950562	971.487122	750.421936	-522.078186
356.082764	948.411438	978.409851	767.497925	-603.076965
356.457733	898.567993	964.564453	758.267700	-212.587601
356.832642	933.643066	968.256653	779.497375	-445.332916
357.207550	934.104492	987.640137	762.421265	-320.689575
357.582397	911.028809	954.872681	733.345947	-405.262695
357.957214	923.028137	951.642090	753.652527	-591.933655
358.332001	933.181458	956.257141	762.882813	-738.000427
358.706757	904.567688	956.257202	771.190063	-258.036133
359.081451	917.028503	976.563782	795.650269	-203.876160
359.456146	891.645203	966.871948	742.576172	-198.159622
359.830780	931.796875	979.794434	750.883423	-376.922211
360.205353	914.259460	981.640503	761.959778	-226.027496
360.579956	933.181519	971.487122	774.882202	-413.253693
360.954498	903.644653	971.025696	752.729492	-223.972733
361.329010	927.181824	934.104492	750.421936	-2553.349121
361.703430	941.950317	967.795105	743.037720	-769.643005
362.077881	945.642395	985.332642	765.651855	-453.488098
362.452271	923.489624	977.025391	761.498291	-302.585236
362.826630	917.490051	944.257813	744.883728	-644.829163
363.200928	930.412476	969.179565	740.730103	-489.287109
363.575226	937.796692	988.101685	755.037048	-363.303192
363.949463	931.796997	983.948059	764.267273	-321.239319
364.323700	927.181824	969.179565	764.267334	-387.912506
364.697845	915.643921	982.563477	715.808411	-298.620483
365.071991	934.104492	981.640503	750.883423	-385.436371
365.446106	911.490356	977.025269	767.497925	-219.718658
365.820190	928.104858	998.716614	760.575195	-237.254639
366.194214	903.183105	983.486511	759.652222	-178.735733
366.568207	923.489624	971.487183	750.421936	-360.576019
366.942200	932.258423	974.256226	728.269226	-485.713989
367.316101	913.336426	967.795105	749.960449	-299.999878
367.690002	941.950195	985.794128	761.498169	-411.578094
368.063843	916.567017	966.872070	747.191284	-336.697235
368.437683	934.566101	962.256836	751.344910	-661.669678
368.811493	924.874207	989.486206	759.652161	-255.714188
369.185181	923.489624	982.101929	758.729126	-281.102234
369.558929	947.949890	977.025269	755.498596	-661.904663
369.932587	927.181824	980.255981	772.113098	-292.173706
370.306213	915.643921	996.408997	752.729553	-201.713882
370.679810	924.874207	998.716492	735.653442	-256.249878
371.053406	899.952515	952.565125	723.654053	-335.087860
371.426910	927.643372	991.332214	779.035767	-233.333817
371.800415	923.028137	975.179321	776.728210	-280.530396
372.173859	918.874634	962.256836	753.191040	-381.916046
372.547302	944.719360	975.179321	744.422241	-657.575073
372.920685	946.103882	996.870483	770.267090	-346.363129
373.294037	902.721558	981.178894	741.653198	-205.294205
373.667358	936.412109	1000.562622	755.036987	-282.733704
374.040619	905.029175	986.717163	755.960083	-182.485931
374.413879	913.336304	948.872925	764.267334	-419.479858
374.787048	898.106445	974.717773	773.497620	-162.650650
375.160217	898.567993	971.025696	745.806763	-210.828140
375.533386	1061.943970	1163.015381	888.414673	-171.689789
375.906494	909.182739	984.871094	756.883179	-201.219284
376.279510	897.644897	931.335449	785.035461	-334.246338
376.652527	900.875488	1001.947083	777.651245	-121.917778
377.025543	898.567871	967.333496	755.960083	-207.382370
377.398499	935.027527	993.178345	793.342712	-243.650589
377.771393	934.104614	988.563171	790.112061	-264.407593
378.144257	920.259094	985.794128	758.729126	-246.478806
378.517120	914.720886	974.717773	758.267700	-260.768829
378.889893	939.181152	979.332886	747.652771	-477.011475
379.262695	910.567261	973.794739	763.805786	-232.116608
379.635406	938.258118	954.872681	732.422852	-1238.884644
380.008148	911.490356	964.564453	746.729797	-310.434967
380.380798	906.413696	978.871460	757.344604	-205.732391
380.753387	926.258789	1001.024048	771.651550	-206.790207
381.126007	920.259094	972.410278	760.575195	-306.194183
381.498566	918.413086	994.562866	747.652832	-224.242615
381.871063	926.720337	982.563477	773.959106	-273.554169
382.243530	901.337036	984.870972	758.729126	-170.718536
382.615997	898.567993	978.409851	743.037720	-194.797913
382.988403	911.490356	973.794739	761.036743	-241.481598
383.360779	924.874207	984.871094	772.574524	-253.845978
383.733093	920.720581	988.101685	773.959106	-217.808060
384.105408	945.642395	985.332642	756.421570	-476.743896
384.477631	927.181824	989.486206	765.190369	-260.000092
384.849854	905.490601	1012.561890	758.729187	-137.068878
385.222046	946.103882	975.640808	769.343933	-598.437195
385.594208	917.951477	972.871704	740.730103	-322.688721
385.966339	928.104858	960.872375	766.574890	-492.957611
386.338379	931.335449	995.024414	753.190979	-279.710114
386.710419	907.336609	995.485962	765.190430	-161.256073
387.082428	910.567261	986.255676	756.883118	-203.048431
387.454407	931.335449	1000.562622	756.421570	-252.666504
387.826324	911.490417	982.563477	758.729126	-214.935577
388.198212	934.104492	963.179871	748.575867	-638.095337
388.570068	920.259155	1010.254272	757.806152	-180.513123
388.941895	928.104858	945.642395	751.806458	-1005.263184
389.313660	914.259399	1026.868896	751.344910	-144.672073
389.685425	916.105469	979.794434	760.113708	-244.927460
390.057129	932.720032	998.716492	767.497925	-250.349960
390.428802	923.028198	976.102356	768.421021	-291.304077
390.800415	931.796997	1009.331238	767.036438	-212.500381
391.172028	929.027832	990.870789	763.805847	-267.163788
391.543610	938.258179	996.870483	762.882813	-299.212555
391.915131	943.796265	1018.561523	762.882813	-241.975296
392.286621	926.720337	1002.408569	764.728882	-214.024628
392.658051	916.567017	997.331909	766.113403	-186.285904
393.029480	948.411438	981.178894	777.189758	-522.535767
393.400848	945.180847	989.947754	767.959412	-395.875977
393.772186	916.105469	974.256226	731.499817	-317.460449
394.143494	924.874207	976.102356	772.574585	-297.296753
394.514771	915.643921	996.408875	769.805542	-180.571365
394.885986	913.336304	979.794312	758.267700	-233.333206
395.257172	914.259399	977.025391	756.883118	-250.734955
395.628326	922.105164	979.794312	732.422852	-328.800690
395.999451	912.413269	1011.177368	758.729126	-155.607300
396.370544	904.106079	1005.177734	778.574219	-124.200859
396.741577	920.720581	1025.022827	754.575562	-159.291885
397.112579	946.103882	1020.407593	762.882751	-246.584091
397.483551	899.952454	997.793457	740.730103	-162.735809
397.854523	922.566711	989.486206	766.574890	-233.103699
398.225372	915.643921	999.639465	772.113098	-170.879089
398.596252	962.718384	1035.637695	795.188782	-229.746552
398.967072	902.259949	1041.637329	766.574829	-97.350891
399.337830	923.028198	1007.946899	744.422241	-210.325821
399.708588	907.798218	1007.485229	774.420593	-133.796387
400.079315	920.720581	1019.946167	770.728577	-151.162628
400.449982	940.104187	1016.254089	775.343689	-216.363373
400.820618	921.643677	995.024414	750.421936	-233.333359
401.191223	907.798218	1029.637939	784.573975	-101.136345
401.561768	905.952148	1028.714844	777.651245	-104.511314
401.932312	914.720886	1014.869507	766.574890	-147.926147
402.302795	928.566406	1030.099487	764.728821	-161.363754
402.673218	930.412415	1033.330078	764.728821	-160.986542
403.043671	929.950867	1018.561646	769.805542	-180.728943
403.414032	913.797974	1019.023132	792.419678	-115.351021
403.784332	916.567017	1011.177368	776.728210	-147.804977
404.154663	935.950562	1018.561646	776.728210	-192.737274
404.524933	886.568542	1014.869507	776.728149	-85.611511
404.895111	934.566040	1011.177368	770.266968	-214.457932
405.265320	931.335449	1025.484375	743.499207	-199.509705
405.635498	894.414246	1014.869446	749.960388	-119.923302
406.005615	927.643372	1051.790649	738.884033	-152.044693
406.375702	924.874207	1021.330688	752.267944	-178.947296
406.745697	921.643677	1046.252563	766.113403	-124.814751
407.115723	910.567261	1034.714600	774.420593	-109.665390
407.485687	943.796387	1066.559082	748.575806	-159.022720
407.855591	939.642700	1035.637573	778.574280	-167.788559
408.225494	915.643921	1081.327515	792.419739	-74.373192
408.595367	925.335754	1076.250732	766.574829	-105.198921
408.965179	934.566040	1092.403809	771.651550	-103.216415
409.334961	924.412720	1099.788086	762.421265	-92.368423
409.704681	923.951172	1091.942261	737.961060	-110.714272
410.074402	908.721313	1116.402588	747.652771	-77.555641
410.444031	920.259094	1106.249268	773.959167	-78.660027
410.813660	962.718384	1171.784180	794.727295	-80.353218
411.183258	924.874207	1145.939453	755.498596	-76.617928
411.552795	908.721191	1154.246704	710.731628	-80.639099
411.922302	917.028503	1202.705688	748.114380	-59.127621
412.291809	921.182129	1225.781494	785.496948	-44.545456
412.661224	902.721558	1228.088989	793.342712	-33.617023
413.030640	928.104858	1252.087646	779.035767	-46.011425
413.399994	911.951843	1261.779541	783.189453	-36.807373
413.769318	947.950012	1261.779541	791.035095	-50.000050
414.138611	939.642700	1323.160889	768.882446	-44.524681
414.507874	926.720337	1349.928589	754.114075	-40.785183
414.877075	907.336731	1343.929077	766.113403	-32.346725
415.246277	925.335754	1371.619873	778.112793	-32.988617
415.615356	931.335449	1388.695923	760.575256	-37.336018
415.984497	923.489746	1389.157471	759.190613	-35.282482
416.353516	932.719910	1421.001831	748.114319	-37.807175
416.722565	919.336060	1445.923584	773.959106	-27.607367
417.091553	917.951538	1479.614136	764.728882	-27.280195
417.460510	960.410767	1527.611572	774.420654	-32.790874
417.829407	940.565735	1480.998779	746.729797	-35.866779
418.198273	913.797852	1517.919678	761.959778	-25.133684
418.567108	888.876160	1563.148071	743.499207	-21.560583
418.935913	936.873535	1536.841797	735.653442	-33.538456
419.304657	945.180847	1591.300537	742.576111	-31.357153
419.673370	921.643677	1583.454834	770.728516	-22.803356
420.042053	892.568237	1577.455200	775.805237	-17.048508
420.410706	909.644226	1601.453857	755.960083	-22.214802
420.779327	923.489624	1641.605713	783.189331	-19.537271
421.147858	935.950562	1647.605469	770.266968	-23.281452
421.516388	940.565735	1697.910156	786.881531	-20.292511
421.884918	927.181824	1685.449585	797.496338	-17.102861
422.253357	924.412720	1666.527344	748.575806	-23.694036
422.621765	908.721313	1714.063232	777.189819	-16.332378
422.990143	902.721558	1744.984741	785.958496	-13.863014
423.358490	940.104187	1707.602173	757.344604	-23.812386
423.726807	945.180847	1746.830811	783.189453	-20.207247
424.095062	905.490601	1784.213501	763.805847	-16.123940
424.463287	916.567017	1804.520142	787.343079	-14.553014
424.831482	911.951843	1803.135498	741.653198	-19.109264
425.199585	928.104858	1814.673462	788.727600	-15.720979
425.567719	903.644653	1859.440186	749.498901	-16.127481
425.935822	929.489380	1848.364014	785.035522	-15.720737
426.303833	931.335449	1891.746338	741.653076	-19.750128
426.671875	928.104797	1857.594360	756.421631	-18.470694
427.039795	896.721863	1900.515015	762.421265	-13.379310
427.407715	955.334167	1948.051025	766.574890	-19.014412
427.775604	932.258484	1952.204712	774.882141	-15.429867
428.143433	954.872681	1961.434937	754.575500	-19.899136
428.511230	923.489746	1971.126709	784.573914	-13.259921
428.879028	908.721191	2000.663696	770.728516	-12.637358
429.246735	919.797546	2014.970459	764.267334	-14.201430
429.614410	935.027527	2007.125000	755.037048	-16.788631
429.982056	929.950867	1994.663818	755.498535	-16.384918
430.349701	942.411743	2032.969482	750.883423	-17.562420
430.717255	920.720581	2074.044434	767.497925	-13.285311
431.084808	909.644348	2115.580566	750.883423	-13.164951
431.452301	944.719360	2141.886963	781.804871	-13.608328
431.819794	911.490356	2153.886230	769.343933	-11.441315
432.187195	932.258423	2152.040527	753.652527	-14.642443
432.554565	922.566711	2182.038574	780.420349	-11.286187
432.921906	940.104187	2220.344238	758.267700	-14.203313
433.289246	931.796997	2254.034668	758.729126	-13.089014
433.656464	905.029175	2281.264160	765.190308	-10.160974
434.023712	925.335754	2289.109863	749.960388	-12.859561
434.390900	899.952454	2261.419189	768.882507	-9.627113
434.758057	922.566589	2291.417480	763.805847	-11.598104
435.125183	938.719604	2319.569824	786.881531	-10.995984
435.492249	922.566711	2377.720459	766.574890	-10.719954
435.859283	928.566284	2345.414551	784.112427	-10.195436
436.226318	916.567017	2374.489746	766.574890	-10.288071
436.593231	927.181824	2410.949707	729.192261	-13.343702
436.960144	922.105164	2420.641357	754.575562	-11.179550
437.327057	902.260071	2470.946533	779.497314	-7.825831
437.693909	936.412109	2503.714111	748.575867	-11.984687
438.060730	944.257813	2447.870605	761.498230	-12.154697
438.427429	941.488647	2470.484863	741.191711	-13.099897
438.794189	927.643372	2506.482910	779.035767	-9.412457
439.160889	919.797546	2498.175781	752.267944	-10.614035
439.527527	941.488770	2517.097656	764.267395	-11.247803
439.894135	914.259399	2558.172607	768.882507	-8.843344
440.260712	913.336304	2571.094971	776.266663	-8.268372
440.627258	949.334473	2580.786621	764.267334	-11.343706
440.993774	919.797668	2534.635498	765.651855	-9.545590
441.360199	920.259094	2521.251465	751.344910	-10.550592
441.726624	913.797852	2689.704346	797.034790	-6.574843
442.092987	937.796692	2613.092773	783.189392	-9.228655
442.459351	908.259766	2671.705078	750.883423	-8.924368
442.825653	951.180542	2666.628418	769.805542	-10.573041
443.191925	928.104797	2725.702148	730.576843	-10.988442
443.558136	899.029480	2703.549561	750.883423	-8.209721
443.924316	907.336731	2703.549561	779.497192	-7.117171
444.290436	919.797668	2779.699463	773.959106	-7.841197
444.656586	929.950867	2817.543457	810.418762	-6.332516
445.022614	930.412415	2784.314453	757.806152	-9.310431
445.388641	923.028137	2794.929199	775.343689	-7.889543
445.754639	918.874634	2872.925293	747.191284	-8.786023
446.120605	918.874512	2872.925293	759.652222	-8.148319
446.486511	915.182434	2943.536621	765.190308	-7.394770
446.852386	916.567017	2925.076416	731.499878	-9.214153
447.218231	930.412415	2994.303467	785.496948	-7.021469
447.584015	926.258789	2965.689453	772.113037	-7.558274
447.949738	926.258789	2945.382813	744.883728	-8.982859
448.315460	922.105164	2977.688965	749.960449	-8.374493
448.681152	894.414246	2982.765625	777.189758	-5.613255
449.046814	941.488770	3126.757813	759.190674	-8.342135
449.412415	943.334839	3180.293457	778.574341	-7.365380
449.777985	941.488770	3130.449951	757.344604	-8.412399
450.143494	934.566040	3233.367676	749.960388	-8.030517
450.509003	917.028503	3228.752441	782.727905	-5.809543
450.874420	917.951477	3149.372314	742.114685	-7.880037
451.239838	908.721191	3232.444824	784.112427	-5.362461
451.605194	932.719910	3311.824951	810.880249	-5.121239
451.970520	943.796265	3277.673096	766.574890	-7.593432
452.335815	929.489380	3300.748779	756.421509	-7.298564
452.701050	927.643372	3251.828125	772.113037	-6.691823
453.066254	942.873352	3309.979248	755.498535	-7.915777
453.431427	962.718384	3338.131348	823.341125	-5.867496
453.796539	903.183105	3295.210449	775.343628	-5.344398
454.161652	939.642700	3406.435547	758.729126	-7.333959
454.526703	928.566284	3386.590576	764.728882	-6.665410
454.891724	932.719910	3335.362549	754.575562	-7.414517
455.256714	953.488098	3364.899170	755.498596	-8.210525
455.621613	925.797241	3390.282715	742.576172	-7.434455
455.986542	939.642700	3555.966309	737.961060	-7.708589
456.351349	914.259460	3572.580566	770.266968	-5.416670
456.716187	913.797974	3527.813965	770.266968	-5.490823
457.080933	927.181824	3463.663330	784.573914	-5.622273
457.445709	921.182129	3445.202393	760.113647	-6.381426
457.810394	913.797974	3433.203613	761.959717	-6.026749
458.175049	938.719604	3543.043701	753.652466	-7.106148
458.539673	926.258789	3522.275879	760.113647	-6.400002
458.904266	939.642700	3571.657715	755.036987	-7.013855
459.268768	900.875488	3602.578857	761.959778	-5.141782
459.633270	928.566406	3634.885254	767.959473	-5.934516
459.997742	941.488770	3625.654785	756.883118	-6.877580
460.362152	940.565735	3640.884766	737.038025	-7.537173
460.726563	915.643921	3656.576172	791.496643	-4.529382
461.090881	928.566406	3676.882813	768.882507	-5.810245
461.455200	916.567017	3727.187988	736.576477	-6.403942
461.819458	913.336426	3761.801514	773.497620	-4.909269
462.183655	924.874207	3751.186768	752.729492	-6.090788
462.547852	942.873230	3783.953857	769.344055	-6.107858
462.912018	926.720337	3772.877686	767.497925	-5.594295
463.276123	927.181824	3776.108643	796.111816	-4.600680
463.640198	903.183105	3825.951660	773.036133	-4.452866
464.004181	918.874512	3907.178223	760.113708	-5.312740
464.368195	916.105469	3965.329346	740.730103	-5.751475
464.732117	943.796387	3899.332764	780.881836	-5.512182
465.096039	923.489746	3970.867188	754.575562	-5.542936
465.459900	904.106140	3897.486816	742.576172	-5.396239
465.823730	916.105469	4010.557861	786.881470	-4.175989
466.187531	898.106445	3956.098877	743.037659	-5.070934
466.551270	944.257813	3975.020996	763.344299	-5.969240
466.914948	939.642700	4033.171875	760.575256	-5.788452
467.278656	918.413086	4127.320801	777.189758	-4.400978
467.642242	941.488770	4098.706543	770.728577	-5.408566
468.005829	924.874207	4232.545898	790.112122	-4.074228
468.369385	909.182739	4265.313477	785.958496	-3.671616
468.732910	935.950562	4265.774902	809.034180	-3.811504
469.096375	935.027527	4263.005371	774.420654	-4.825960
469.459839	934.104492	4330.848145	784.573914	-4.402174
469.823181	907.798218	4328.079102	772.574585	-3.953583
470.186523	936.873535	4360.846680	786.881470	-4.380644
470.549835	925.797241	4429.150879	797.034790	-3.675406
470.913116	945.180847	4461.457031	772.113098	-4.921905
471.276306	919.797546	4455.457031	785.035461	-3.811512
471.639526	925.335754	4579.604492	771.190063	-4.218236
472.002686	938.719727	4579.143066	778.112732	-4.411767
472.365784	916.567017	4688.521484	782.266418	-3.560504
472.728851	930.873901	4763.748535	804.880554	-3.287176
473.091888	923.028198	4970.968262	800.265442	-3.032722
473.454865	939.642700	5037.426758	780.881836	-3.874310
473.817810	897.183411	5152.343750	785.496948	-2.624730
474.180695	913.797852	4925.739746	792.881226	-3.013918
474.543610	925.335754	4960.353516	771.651550	-3.808761
474.906464	946.565430	5175.880371	807.188110	-3.295506
475.269226	918.874634	5341.563965	809.495728	-2.473131
475.631958	899.029480	5398.330078	779.035767	-2.666941
475.994629	942.873230	5431.097656	790.573608	-3.393316
476.357330	909.182739	5499.863281	810.418762	-2.151402
476.719971	916.567017	5504.939941	788.727661	-2.786159
477.082550	922.105164	5530.784668	779.035828	-3.104345
477.445099	920.720581	5504.940430	791.496643	-2.818886
477.807617	927.181824	5632.317871	761.959778	-3.511525
478.170044	920.720581	5713.083008	766.113464	-3.226115
478.532501	915.643921	5831.230469	776.728210	-2.826025
478.894867	927.643372	5881.535645	762.882813	-3.325881
479.257202	913.797974	5960.916016	779.497314	-2.660938
479.619537	915.182434	6120.138184	787.343079	-2.456109
479.981812	922.105164	6128.907227	770.728516	-2.907286
480.344025	921.182129	6254.900879	793.804321	-2.388161
480.706207	902.260071	6347.665039	815.495422	-1.593355
481.068359	917.028503	6465.350586	765.190369	-2.736650
481.430450	947.488403	6558.114746	791.035095	-2.788518
481.792480	921.643677	6724.260254	790.573608	-2.258810
482.154541	936.873657	6827.639160	816.418396	-2.044815
482.516510	955.795715	6854.407715	777.189758	-3.027932
482.878479	922.566589	7009.475586	821.956543	-1.652892
483.240387	937.796570	7155.775879	804.880615	-2.137607
483.602264	936.412109	7128.546875	826.110229	-1.781322
483.964050	935.950562	7266.077148	813.187866	-1.939340
484.325836	938.258179	7525.448242	787.343018	-2.291040
484.687561	924.412720	7513.449219	812.726318	-1.695034
485.049255	927.181824	7670.825684	795.188843	-1.957295
485.410950	919.797668	7722.053223	788.727600	-1.926862
485.772552	909.644226	7803.742188	805.342102	-1.512919
486.134155	897.183411	7848.508789	789.189087	-1.553579
486.495697	919.797546	8103.726563	795.650269	-1.728125
486.857178	951.180542	8202.490234	773.497620	-2.450356
487.218628	936.873535	8234.795898	794.727234	-1.947764
487.580017	931.796997	8418.017578	806.726624	-1.670674
487.941406	940.565735	8591.084961	772.113037	-2.201847
488.302734	936.412109	8640.466797	775.805176	-2.084707
488.664032	917.951538	8777.075195	820.572083	-1.239063
489.025299	922.566711	8874.916016	791.958130	-1.642390
489.386505	922.566589	9048.445313	792.419739	-1.601634
489.747681	943.334778	9053.983398	797.957886	-1.792420
490.108795	907.336731	9197.974609	806.265137	-1.219105
490.469879	930.873901	9212.283203	803.034546	-1.543691
490.830933	919.336121	9516.881836	803.957520	-1.341995
491.191956	900.413940	9533.036133	786.881531	-1.315156
491.552917	917.028503	9717.179688	781.804871	-1.536606
491.913879	948.411499	9769.330078	802.111450	-1.658558
492.274719	912.874878	9863.017578	816.418457	-1.077708
492.635590	931.796997	9807.635742	792.881226	-1.565100
492.996368	928.104797	10033.317383	779.035767	-1.637183
493.357117	906.875183	10182.846680	772.574585	-1.447833
493.717865	920.720581	10215.153320	802.111511	-1.276130
494.078552	911.951843	10424.218750	791.958191	-1.261462
494.439209	901.798462	10515.136719	771.651550	-1.353816
494.799835	919.336121	10552.518555	805.803589	-1.178557
495.160370	924.412720	10654.976563	815.033875	-1.124075
495.520874	943.334778	10836.350586	801.649963	-1.432170
495.881348	916.105469	10893.117188	819.187500	-0.971413
496.241791	936.873657	11026.494141	788.266052	-1.472876
496.602173	938.719727	11035.724609	792.419739	-1.448944
496.962555	933.181458	11237.869141	797.957886	-1.312253
497.322876	928.104858	11301.556641	796.111816	-1.272412
497.683167	932.258423	11419.243164	793.342712	-1.324649
498.043396	921.182129	11501.854492	822.879578	-0.929077
498.403564	907.798218	11564.158203	779.958862	-1.199653
498.763702	911.028809	11822.144531	835.340515	-0.693681
499.123810	931.335449	11743.687500	816.418457	-1.062831
499.483887	914.720886	11827.221680	823.802612	-0.833157
499.843933	929.489380	11824.914063	779.035767	-1.380888
500.203918	932.258484	11939.830078	789.189087	-1.299736
500.563873	918.413086	11990.135742	799.803894	-1.071280
500.923767	912.413391	12056.132813	791.958130	-1.080925
501.283630	938.258118	12268.429688	802.111511	-1.201629
501.643433	923.489624	12220.431641	816.418457	-0.947789
502.003204	926.720337	12342.732422	783.650940	-1.253235
502.362946	904.106079	12477.033203	811.341736	-0.801563
502.722656	903.644653	12551.337891	814.572388	-0.764720
503.082336	909.182800	12547.644531	818.725952	-0.777223
503.441925	928.104858	12749.787109	799.803894	-1.085302
503.801514	901.337097	12702.713867	779.035767	-1.036331
504.161011	947.026978	12779.787109	798.419434	-1.255899
504.520508	929.489441	12879.012695	797.957886	-1.100726
504.879974	915.643921	12984.237305	806.265137	-0.906309
505.239410	923.951294	13011.466797	818.725952	-0.870529
505.598755	916.105469	13078.847656	762.882813	-1.259771
505.958099	931.796997	13165.150391	835.340515	-0.788471
506.317352	922.566711	13304.989258	806.726685	-0.935520
506.676605	931.796997	13363.140625	785.496948	-1.176864
507.035797	929.027832	13395.908203	816.879883	-0.899567
507.394958	945.642395	13493.287109	801.650024	-1.147565
507.754089	910.105835	13537.593750	823.341125	-0.687110
508.113159	939.642761	13619.281250	818.264526	-0.957269
508.472198	921.643677	13643.278320	820.110535	-0.798114
508.831207	912.874817	13766.041992	807.649658	-0.818671
509.190186	928.104858	13852.807617	803.957520	-0.960543
509.549103	909.644226	13845.423828	821.033569	-0.685004
509.907898	914.259399	13972.338867	813.187805	-0.774016
510.266754	935.027527	14051.718750	834.417480	-0.767038
510.625549	926.258789	13994.029297	851.032043	-0.575666
510.984314	930.873901	14091.409180	813.649292	-0.890728
511.343018	943.796265	14150.021484	834.879028	-0.824742
511.701691	936.873657	14276.476563	799.803894	-1.027540
512.060242	940.565735	14319.398438	794.727234	-1.090069
512.418884	941.950317	14291.245117	808.572754	-0.999136
512.777405	932.258484	14481.388672	817.802979	-0.844744
513.135864	910.567261	14456.929688	815.033875	-0.705233
513.494385	946.103882	14515.080078	827.494751	-0.874120
513.852783	924.412720	14629.073242	826.110229	-0.717292
514.211182	932.258484	14674.302734	824.725708	-0.782509
514.569458	931.796997	14877.369141	841.340210	-0.648642
514.927795	940.104187	14805.372070	809.034241	-0.945311
515.285950	926.720215	14923.981445	840.417175	-0.616571
515.644226	933.642944	14777.681641	843.186218	-0.653398
516.002380	940.565735	15044.898438	829.340820	-0.788587
516.360535	912.413391	15112.278320	821.956665	-0.637025
516.718628	929.489380	15176.429688	847.801392	-0.573372
517.076660	949.796021	15181.505859	822.879578	-0.891786
517.434570	927.643250	15244.271484	823.341125	-0.728538
517.792542	927.643372	15207.812500	797.034851	-0.914615
518.150452	914.259399	15269.656250	814.110901	-0.697637
518.508362	932.258484	15359.189453	795.188782	-0.950096
518.866150	879.645813	15380.879883	832.109863	-0.327806
519.223999	932.720032	15435.337891	810.418762	-0.843305
519.581726	948.873047	15627.328125	812.726318	-0.927528
519.939453	922.105164	15708.093750	806.265137	-0.783445
520.297058	913.797852	15643.020508	826.110229	-0.595331
520.654724	904.106079	15778.244141	826.571777	-0.521269
521.012268	942.873230	15767.627930	815.495422	-0.859224
521.369812	937.335144	15928.236328	820.110535	-0.781972
521.727295	931.796997	15888.083984	857.031616	-0.499893
522.084778	940.565735	15953.619141	817.803040	-0.817706
522.442200	932.258484	16045.460938	816.418396	-0.766483
522.799561	933.642944	16102.687500	804.419128	-0.851892
523.156799	905.952148	16294.216797	833.955933	-0.467864
523.514160	929.950867	16258.218750	806.726624	-0.803902
523.871338	930.873901	16380.981445	844.570801	-0.558592
524.228577	927.643372	16349.598633	818.725952	-0.706249
524.585693	909.644348	16488.052734	815.495361	-0.604356
524.942871	915.182434	16375.443359	808.111206	-0.692558
525.299927	940.565735	16617.277344	837.648071	-0.656500
525.656982	940.104187	16492.207031	821.494995	-0.762657
526.013977	927.643372	16656.503906	791.958191	-0.862651
526.370972	925.797241	16709.117188	802.111450	-0.783649
526.727783	902.260071	16711.886719	839.032593	-0.399930
527.084656	920.259094	16711.425781	809.495728	-0.701426
527.441528	919.797668	16729.886719	803.034546	-0.738536
527.798279	917.028503	16982.794922	813.187866	-0.646347
528.154968	945.180847	16875.724609	811.341797	-0.840141
528.511719	893.952820	17195.552734	821.033569	-0.447313
528.868347	918.874634	17085.251953	801.649963	-0.725114
529.224915	916.105469	17217.707031	819.187561	-0.594530
529.581482	927.181824	17239.396484	826.110229	-0.619607
529.938049	897.644897	17348.314453	793.804199	-0.631225
530.294495	945.642395	17361.238281	811.341736	-0.818128
530.651001	944.257813	17357.544922	782.266418	-0.986953
531.007385	916.105469	17524.613281	839.032593	-0.464057
531.363708	932.258423	17582.302734	833.494507	-0.593175
531.720032	945.642395	17675.068359	810.418762	-0.808298
532.076294	913.797852	17558.302734	810.880249	-0.618328
532.432556	930.873901	17687.527344	815.033875	-0.691308
532.788757	920.259094	17771.984375	816.418396	-0.616202
533.144836	924.874207	17740.601563	794.265747	-0.776704
533.500977	954.411133	17971.359375	829.802368	-0.732263
533.857056	933.181458	17807.521484	836.263489	-0.574351
534.213013	939.181152	18087.199219	815.033875	-0.723975
534.568970	925.797241	18127.812500	831.186890	-0.549996
534.924927	934.104492	18284.265625	813.187866	-0.696919
535.280823	903.644531	18309.648438	788.265991	-0.662866
535.636719	913.797974	18339.185547	838.109558	-0.434357
535.992493	911.028809	18342.878906	797.034912	-0.653940
536.348267	938.719604	18460.103516	797.496399	-0.806005
536.703979	904.567688	18599.941406	799.803955	-0.592040
537.059692	901.798462	18554.712891	820.572083	-0.460130
537.415283	917.951538	18554.712891	814.110840	-0.588774
537.770874	941.027222	18627.167969	802.111450	-0.785450
538.126404	926.258789	18793.775391	831.648315	-0.529511
538.481873	954.872681	18999.152344	812.264771	-0.790322
538.837402	937.796692	18956.228516	836.724976	-0.560935
539.192810	924.874207	18795.623047	841.801758	-0.464852
539.548218	926.720337	19069.300781	827.033325	-0.549464
539.903503	956.257202	19091.916016	828.879272	-0.702362
540.258789	916.105469	19318.519531	807.649658	-0.589356
540.614075	923.028137	19257.597656	821.033569	-0.556296
540.969299	928.104797	19309.287109	791.496704	-0.743195
541.324402	923.028137	19217.908203	827.033203	-0.524709
541.679565	927.181824	19390.976563	783.189392	-0.779864
542.034668	939.642700	19565.890625	838.109558	-0.545108
542.389648	905.029114	19675.730469	813.187866	-0.489280
542.744690	881.030396	19472.203125	815.495422	-0.352506
543.099548	935.027527	19605.119141	792.419739	-0.763830
543.454468	912.874878	19823.876953	830.725281	-0.434401
543.809387	905.952148	19761.572266	820.571960	-0.452810
544.164246	896.260376	19889.412109	830.263855	-0.347475
544.518982	912.874878	19967.406250	855.647156	-0.300337
544.873718	917.489929	19995.097656	808.572632	-0.570917
545.228394	919.336060	20042.634766	815.495422	-0.543006
545.583069	907.336731	20171.859375	819.649048	-0.455177
545.937683	937.796692	20188.933594	831.648438	-0.551387
546.292236	917.951538	20234.162109	828.879272	-0.461127
546.646729	923.028198	20260.468750	822.879700	-0.517899
547.001221	913.797974	20350.003906	838.571106	-0.387045
547.355652	917.028503	20487.072266	813.649353	-0.528252
547.710022	914.259399	20503.687500	836.263550	-0.398153
548.064453	920.259094	20442.304688	795.650330	-0.638298
548.418762	933.181458	20608.910156	834.417358	-0.501959
548.773010	925.335754	20598.296875	825.648621	-0.506722
549.127136	898.567993	20673.521484	829.340820	-0.350075
549.481384	914.259460	20688.292969	854.262573	-0.303412
549.835510	917.951538	20782.902344	825.648743	-0.464651
550.189636	929.950867	20830.437500	839.494141	-0.454545
550.543640	922.105164	20975.816406	821.033569	-0.504004
550.897583	936.873657	20861.822266	821.495117	-0.579066
551.251587	922.566711	20910.740234	841.340149	-0.406373
551.605530	933.181458	20915.818359	827.956238	-0.526583
551.959351	937.335144	21064.888672	827.033203	-0.548015
552.313232	913.797852	21181.189453	835.802063	-0.384834
552.666992	939.642700	21184.419922	865.800415	-0.364747
553.020813	918.874512	21129.498047	825.187195	-0.463555
553.374512	941.488770	21219.957031	824.725708	-0.575798
553.728149	899.952515	21311.337891	865.800476	-0.167319
554.081787	908.259644	21485.328125	830.725403	-0.376799
554.435303	900.875488	21336.718750	812.726318	-0.431346
554.788818	921.182007	21426.714844	812.726257	-0.528910
555.142334	917.951538	21392.103516	820.572083	-0.475621
555.495789	932.719910	21529.169922	843.647766	-0.432464
555.849182	900.413940	21633.011719	853.801086	-0.224829
556.202515	936.873657	21578.089844	833.032898	-0.503075
556.555847	940.565735	21485.328125	846.416870	-0.458262
556.909058	905.490601	21590.089844	815.956909	-0.432852
557.262329	946.103882	21837.923828	839.032593	-0.512503
557.615540	929.027832	21716.082031	856.570190	-0.348571
557.968689	911.490356	21866.076172	842.263306	-0.330367
558.321777	911.490356	21711.931641	831.186890	-0.386066
558.674805	936.412109	21745.621094	861.185242	-0.361508
559.027832	937.335144	21794.082031	848.724426	-0.424854
559.380798	927.181824	22000.376953	845.493835	-0.387639
559.733643	928.104858	21923.763672	842.724792	-0.406656
560.086548	915.182495	21987.453125	867.646484	-0.225586
560.439392	932.719910	21969.457031	851.032043	-0.388311
560.792175	900.875488	22060.833984	854.723999	-0.218108
561.144958	899.490906	22008.683594	861.185364	-0.181464
561.497620	917.490051	22195.136719	832.109863	-0.401267
561.850281	923.489624	22192.828125	870.415649	-0.249533
562.202942	918.412964	22205.287109	866.261902	-0.244992
562.555481	949.334473	22258.363281	863.954285	-0.400676
562.908020	950.719055	22165.597656	866.261902	-0.398103
563.260498	906.875183	22267.593750	859.800659	-0.220379
563.612976	929.489380	22281.900391	870.877075	-0.274500
563.965393	952.103638	22398.662109	844.570801	-0.501399
564.317749	929.027832	22204.365234	865.800415	-0.297186
564.670044	935.950562	22400.048828	876.876770	-0.275221
565.022339	917.028503	22441.583984	860.262329	-0.263728
565.374512	907.798218	22442.046875	878.722839	-0.135019
565.726685	929.027832	22348.359375	872.261597	-0.265023
566.078796	898.106445	22531.580078	898.567871	0.002133
566.430908	941.027222	22628.035156	878.722839	-0.287289
566.783020	935.489075	22473.890625	873.184692	-0.289271
567.134888	938.258118	22616.498047	881.953430	-0.259729
567.486877	930.873901	22641.417969	895.337280	-0.163684
567.838806	921.182129	22591.113281	883.799500	-0.172509
568.190674	917.028503	22859.253906	895.798828	-0.096753
568.542542	935.027527	22727.261719	930.412415	-0.021178
568.894348	903.644653	22673.724609	901.798523	-0.008480
569.246094	917.028503	22970.478516	911.951843	-0.023020
569.597839	927.181824	22773.873047	914.259399	-0.059150
569.949463	932.720032	22818.642578	872.723145	-0.274135
570.301025	932.258484	22891.097656	929.027832	-0.014712
570.652588	898.567993	22963.556641	939.642700	0.186153
571.004089	944.257813	22855.101563	913.797852	-0.139018
571.355591	932.258484	22960.326172	925.335754	-0.031427
571.707031	963.179871	23132.933594	936.873657	-0.118658
572.058472	917.490051	23003.707031	959.949341	0.192243
572.409790	951.180481	23043.861328	948.411499	-0.012533
572.761047	919.797546	22944.171875	945.642395	0.117347
573.112305	920.720703	23078.474609	993.639832	0.329091
573.463501	958.564758	22964.941406	984.871094	0.119540
573.814697	932.258423	23173.544922	989.947754	0.259379
574.165894	954.411133	22997.708984	942.411804	-0.054435
574.516907	899.029480	23140.316406	972.410156	0.329930
574.867981	911.951843	23272.769531	970.564148	0.262121
575.218994	925.797241	23131.548828	1001.024048	0.338772
575.569946	937.335144	23216.005859	976.102356	0.174010
575.920898	920.259155	23280.617188	1021.792175	0.454076
576.271667	953.026550	23161.546875	993.639832	0.182873
576.622498	921.643677	23222.927734	1006.562195	0.380779
576.973267	896.260376	23379.843750	1012.100403	0.515220
577.324036	927.181824	23182.312500	1016.254089	0.400232
577.674683	929.489380	23244.158203	1037.483643	0.483961
578.025391	911.028809	23502.144531	1031.022461	0.531154
578.375854	917.951538	23462.453125	1060.559326	0.632561
578.726440	912.874817	23506.757813	1078.096924	0.731269
579.076965	951.642090	23401.533203	1074.866455	0.548886
579.427429	939.642761	23449.533203	1096.095947	0.695042
579.777832	898.567993	23461.992188	1095.173096	0.871344
580.128235	952.103516	23540.449219	1096.095947	0.637463
580.478577	944.257813	23523.373047	1112.249023	0.744011
580.828857	918.413086	23477.683594	1100.249634	0.806039
581.179077	911.028809	23609.675781	1136.709229	0.994246
581.529297	909.644226	23570.910156	1154.246826	1.079386
581.879395	944.719360	23711.210938	1135.324707	0.837219
582.229553	934.104614	23653.519531	1182.860718	1.094905
582.579590	937.796692	23700.593750	1163.015503	0.989416
582.929626	948.872925	23515.990234	1189.321777	1.065483
583.279663	948.411499	23630.906250	1221.627686	1.204524
583.629517	922.105164	23717.671875	1252.087646	1.447573
583.979370	941.027161	23712.130859	1242.395874	1.323470
584.329285	910.105835	23808.587891	1253.010742	1.497501
584.679077	923.489624	23833.050781	1299.162109	1.639807
585.028748	922.566711	23936.427734	1289.931885	1.596278
585.378479	937.796692	23864.894531	1294.085449	1.554007
585.728210	912.413391	23859.816406	1270.548218	1.560677
586.077820	933.181458	23893.507813	1305.623291	1.622110
586.427368	952.103638	24040.269531	1333.314209	1.651108
586.776917	916.567017	23894.892578	1385.465210	2.040611
587.126343	932.258484	23892.121094	1366.081787	1.889486
587.475830	911.951843	23953.503906	1349.005615	1.896807
587.825256	928.104797	24051.343750	1384.080811	1.971938
588.174561	917.490051	24076.265625	1394.234131	2.058589
588.523865	905.490601	24122.878906	1409.002563	2.168685
588.873047	937.335144	23900.892578	1455.154053	2.254960
589.222290	917.490051	24121.957031	1433.462646	2.223592
589.571472	926.720215	24105.802734	1455.615479	2.281778
589.920654	902.721558	24241.488281	1468.999390	2.426340
590.269714	933.181458	24258.566406	1481.460205	2.350567
590.618774	926.258789	24186.568359	1474.537354	2.357142
590.967773	943.334778	24193.490234	1538.226440	2.558657
591.316772	896.721863	24219.800781	1522.534912	2.683235
591.665649	920.259094	24337.023438	1579.301147	2.814403
592.014526	945.642395	24211.953125	1603.761475	2.828635
592.363281	901.337036	24396.095703	1576.070679	2.871848
592.712036	917.028503	24363.791016	1632.836792	3.052909
593.060791	941.027222	24520.242188	1681.295654	3.139496
593.409485	917.490051	24438.556641	1715.447876	3.392524
593.758118	924.412720	24263.640625	1667.450439	3.183643
594.106628	933.642944	24509.628906	1757.445679	3.494245
594.455200	902.260071	24409.480469	1780.059814	3.734171
594.803711	926.720337	24450.554688	1743.138672	3.470601
595.152161	947.950012	24416.402344	1785.598022	3.569251
595.500549	905.490601	24528.550781	1834.057007	3.930763
595.848938	920.720581	24557.166016	1840.056641	3.889485
596.197266	924.412720	24633.777344	1856.671143	3.932026
596.545532	920.720581	24639.777344	1901.899658	4.136670
596.893799	926.258789	24712.234375	1918.052490	4.169657
597.242004	916.105469	24712.234375	1950.358643	4.346309
597.590149	923.951294	24634.238281	1934.205444	4.260826
597.938232	909.182739	24678.082031	1988.664307	4.541572
598.286194	898.106445	24746.847656	2038.507813	4.781809
598.634277	945.180847	24744.539063	2044.045898	4.617205
598.982178	920.720581	24805.458984	2092.504639	4.905995
599.330139	914.259460	24807.304688	2058.352783	4.788394
599.677917	921.182129	24810.535156	2122.964844	5.030621
600.025757	940.565735	25055.601563	2135.887207	4.956748
600.373596	935.950562	24945.298828	2158.962891	5.093901
600.721375	893.952759	25063.908203	2243.420166	5.583243
601.069031	923.951172	24882.994141	2260.496094	5.578457
601.416687	925.335754	24899.146484	2223.113281	5.413314
601.764282	935.489075	24993.294922	2269.726318	5.545964
602.111816	927.643372	25027.449219	2282.648682	5.622474
602.459290	927.181824	25078.214844	2356.490967	5.918211
602.806824	920.259094	25038.062500	2365.259521	5.991427
603.154236	931.335449	25118.365234	2375.874512	5.972371
603.501587	923.489746	25158.056641	2404.949951	6.113005
603.848877	951.641968	25253.589844	2428.025879	6.075167
604.196167	949.334473	25374.968750	2476.484863	6.252244
604.543457	930.873901	25248.052734	2555.403564	6.680584
604.890625	906.875183	25419.273438	2519.405518	6.578427
605.237732	917.028503	25345.431641	2578.017822	6.799418
605.584839	906.413696	25361.121094	2609.862061	6.965728
605.931885	926.258789	25403.119141	2622.784668	6.931142
606.278870	898.567993	25359.738281	2653.244629	7.173315
606.625854	945.180847	25495.425781	2646.783203	6.931101
606.972778	954.872681	25635.722656	2627.861328	6.778489
607.319702	918.874512	25619.107422	2721.086670	7.296337
607.666504	918.874512	25685.566406	2729.394287	7.310301
608.013306	914.259399	25440.503906	2778.314697	7.600248
608.360046	901.798523	25868.787109	2750.623779	7.405079
608.706726	900.875488	25745.562500	2747.854980	7.434103
609.053345	913.797852	25730.333984	2811.543701	7.647102
609.399963	926.720337	25754.792969	2873.386475	7.840585
609.746521	952.565063	25839.251953	2889.539795	7.783176
610.093018	927.181824	25746.947266	2884.001465	7.884118
610.439453	939.642700	25912.630859	2976.304443	8.155458
610.785889	924.412720	25854.941406	2975.381348	8.226736
611.132263	932.720032	26005.394531	2961.997559	8.093583
611.478577	903.183105	25838.789063	2962.458984	8.258375
611.824829	902.260071	25904.324219	3019.225098	8.467161
612.171082	925.797241	25890.941406	3008.610596	8.342886
612.517334	935.489075	25971.707031	3025.686523	8.348695
612.863464	931.796997	25795.869141	3093.528809	8.694199
613.209534	921.182129	25869.710938	3060.299805	8.574123
613.555603	932.258484	25987.857422	3121.219971	8.736416
613.901611	941.488770	26046.472656	3111.527832	8.643857
614.247620	924.412781	25908.478516	3094.913574	8.687540
614.593506	913.797974	25880.787109	3161.833008	9.004030
614.939331	937.796692	26188.617188	3157.217773	8.789501
615.285156	937.796692	26052.009766	3158.602295	8.842824
615.630920	903.183105	25940.322266	3222.291504	9.262673
615.976624	945.180847	26071.853516	3231.983154	9.101095
616.322327	936.412109	26033.548828	3230.598633	9.141228
616.667969	929.027832	26128.158203	3223.214355	9.104229
617.013611	917.490051	26016.933594	3209.369141	9.131195
617.359131	926.720337	25900.630859	3206.138184	9.127197
617.704651	928.566406	25923.707031	3274.442383	9.385328
618.050171	912.874878	26074.623047	3299.364014	9.484592
618.395508	944.719360	26116.621094	3329.824219	9.475267
618.740906	919.336121	26020.166016	3325.670654	9.586673
619.086243	929.950867	25909.863281	3336.285645	9.633080
619.431519	923.028198	26049.701172	3418.896484	9.933142
619.776733	928.566406	26095.853516	3382.898438	9.752072
620.121826	928.566406	26088.468750	3455.817627	10.044758
620.467041	933.181519	26200.156250	3475.201172	10.060640
620.812073	933.642944	25979.550781	3470.124268	10.127329
621.157104	910.567261	26131.849609	3499.661377	10.265513
621.502075	917.951538	26004.011719	3523.660156	10.387077
621.847046	943.796265	25945.861328	3502.892090	10.235538
622.192017	925.335754	26090.775391	3537.044189	10.378156
622.536865	917.951538	26090.314453	3525.044434	10.356965
622.881653	905.952148	26097.697266	3575.349609	10.596317
623.226440	935.950500	26052.009766	3530.582764	10.330571
623.571167	913.336426	26018.781250	3532.428955	10.432368
623.915833	935.489075	26112.005859	3549.504639	10.382753
624.260437	896.721863	25954.167969	3613.193848	10.840977
624.605103	875.030640	26023.394531	3575.349609	10.737553
624.949646	920.720581	26082.468750	3623.347168	10.741013
625.294067	872.723145	26089.392578	3515.813965	10.481522
625.638550	913.797852	26100.005859	3579.964844	10.585822
625.982910	922.566772	26064.931641	3601.194580	10.653842
626.327271	916.105469	26122.160156	3647.807373	10.837483
626.671570	961.795410	26108.775391	3686.112793	10.833576
627.015808	945.180847	26077.853516	3693.958984	10.937071
627.359985	909.644226	26056.162109	3701.343018	11.101731
627.704163	907.798218	26201.539063	3711.034668	11.082727
628.048340	921.643677	26082.931641	3755.801514	11.263962
628.392395	917.490051	25863.250000	3702.727295	11.165174
628.736450	928.566406	26211.693359	3763.647217	11.213331
629.080444	948.872925	26026.625000	3730.880127	11.093528
629.424316	927.643250	26128.619141	3783.492676	11.332296
629.768250	950.257507	26151.234375	3749.340332	11.107040
630.112061	949.334473	26045.085938	3779.339111	11.276828
630.455872	922.566589	26016.011719	3812.106201	11.515117
630.799561	938.719604	25993.859375	3789.030762	11.376153
631.143311	919.336060	26165.082031	3816.260254	11.474901
631.487000	918.412964	26100.005859	3906.716797	11.867016
631.830505	906.413696	25951.861328	3897.486816	11.942583
632.174072	921.182129	26151.693359	3885.025391	11.747060
632.517639	962.718445	26094.929688	3884.563965	11.625899
632.861084	916.105469	26109.238281	3968.098389	12.114385
633.204590	923.489746	26130.464844	3915.947266	11.871546
633.547913	922.105164	26053.394531	3888.718018	11.804460
633.891235	929.027954	26057.548828	3930.715576	11.945341
634.234558	922.105164	26178.462891	3939.022705	11.945181
634.577759	928.566284	26214.925781	3907.178223	11.779520
634.921021	915.182434	26349.683594	3983.789795	12.064743
635.264160	920.259094	26216.769531	3954.252686	11.993725
635.607300	956.718750	26315.074219	4020.249268	12.080951
635.950256	954.872681	26227.843750	3993.481201	12.023155
636.293274	944.257813	26163.697266	4009.173096	12.152987
636.636230	917.490051	26293.380859	4028.094971	12.258112
636.979187	911.490356	26257.380859	3967.175049	12.055937
637.321960	906.413696	26090.777344	4045.632813	12.464953
637.664795	949.334473	26222.306641	4006.865234	12.098026
638.007568	934.566101	26331.224609	4047.940186	12.258991
638.350281	925.797241	26155.849609	4017.941895	12.255799
638.692932	910.105774	26408.759766	4079.322998	12.428959
639.035645	933.642944	26316.917969	4011.480469	12.125454
639.378235	908.721313	26470.603516	4033.171875	12.223085
639.720764	901.337036	26283.228516	3988.404785	12.162482
640.063232	912.413269	26412.449219	4008.711426	12.142328
640.405701	916.567017	26335.380859	3971.790283	12.019534
640.748108	910.567261	26370.453125	4016.557129	12.199543
641.090515	930.412415	26193.693359	3995.327393	12.131896
641.432739	888.414673	26323.378906	4018.864746	12.307665
641.774963	965.026001	26377.837891	3952.867920	11.757226
642.117188	919.336060	26241.691406	3948.714355	11.963257
642.459351	908.721191	26459.988281	4014.711426	12.155914
642.801392	917.490051	26266.613281	3989.789063	12.119943
643.143494	899.029480	26353.837891	3921.023438	11.871996
643.485535	918.413086	26358.457031	3931.177002	11.842606
643.827515	924.874329	26346.457031	3952.867920	11.911114
644.169434	947.488403	26375.527344	3906.716797	11.637659
644.511292	929.950867	26159.080078	3925.177246	11.872096
644.853149	907.336731	26442.449219	3911.331543	11.764173
645.194946	955.334167	26276.769531	3873.026611	11.522618
645.536743	949.796021	26332.609375	3860.565186	11.467481
645.878418	940.565796	26505.677734	3887.794434	11.528322
646.220032	953.949585	26524.599609	3831.028564	11.251490
646.561584	919.336060	26418.912109	3819.490723	11.373345
646.903198	917.951538	26395.837891	3832.874512	11.440991
647.244690	915.182434	26674.130859	3748.417236	10.999031
647.586121	940.565796	26424.449219	3743.340576	10.998225
647.927490	925.797241	26465.062500	3737.802734	11.010518
648.268860	896.721863	26717.050781	3753.955566	11.065830
648.610168	917.951538	26541.212891	3685.651611	10.801514
648.951477	929.489441	26465.988281	3703.188965	10.861707
649.292725	912.413391	26438.755859	3706.881348	10.947390
649.633850	922.566711	26554.136719	3688.882080	10.792610
649.975037	903.183105	26623.363281	3625.192871	10.583168
650.316101	955.334167	26615.519531	3667.190918	10.568344
650.657166	926.720337	26496.447266	3654.268799	10.667100
650.998169	940.565735	26671.822266	3639.961670	10.490727
651.339050	922.566711	26534.292969	3624.731689	10.550499
651.679993	923.028198	26629.824219	3627.962158	10.522252
652.020752	884.722534	26666.285156	3621.500732	10.615253
652.361572	948.872925	26845.812500	3572.119141	10.129560
652.702332	940.104126	26628.441406	3610.424561	10.395068
653.043030	926.720337	26675.052734	3555.042969	10.207740
653.383667	923.489746	26614.593750	3618.270264	10.489159
653.724304	932.258484	26713.822266	3587.810547	10.300198
654.064819	905.490723	26531.521484	3549.043457	10.315888
654.405334	927.643372	26729.974609	3580.887939	10.282965
654.745850	925.335754	26680.128906	3476.585449	9.905922
655.086243	919.797546	26635.363281	3508.430176	10.066403
655.426575	928.566406	26584.597656	3511.199219	10.066377
655.766968	912.874817	26854.582031	3494.123535	9.950189
656.107239	925.335754	26651.978516	3411.050781	9.662026
656.447449	932.720032	26837.968750	3369.975830	9.408348
656.787659	906.413696	26575.365234	3339.054688	9.476979
657.127747	906.875183	26770.587891	3319.671143	9.328884
657.467773	898.106445	26628.441406	3331.208496	9.456161
657.807800	942.873230	26828.738281	3314.594238	9.162224
658.147888	927.643372	26695.359375	3291.979980	9.175577
658.487732	937.796570	26769.662109	3359.822754	9.376118
658.827637	919.797546	26789.968750	3369.514160	9.469271
659.167480	917.490051	26755.818359	3334.900879	9.355910
659.507324	897.644897	26775.662109	3278.134277	9.198886
659.847107	923.028198	26593.365234	3276.750244	9.169035
660.186829	935.489075	27041.494141	3298.441406	9.051374
660.526428	953.488098	26766.894531	3219.983887	8.780305
660.866089	913.797852	26670.900391	3296.595215	9.251031
661.205627	934.566040	26703.667969	3287.826660	9.132102
661.545166	945.642395	26728.125000	3223.676025	8.835588
661.884583	925.797241	26939.962891	3119.373779	8.432239
662.224060	947.488464	26848.582031	3131.834473	8.433412
662.563354	911.490356	26830.121094	3085.221924	8.386752
662.902649	923.028137	26805.662109	3027.993896	8.132734
663.241943	924.412720	26916.425781	3075.068604	8.274295
663.581177	930.412415	26857.812500	3055.685059	8.197014
663.920349	909.644348	26797.353516	3019.225098	8.148967
664.259460	907.798218	26753.972656	2974.458252	7.996000
664.598572	921.182129	26693.511719	2952.767090	7.882814
664.937622	882.876465	26891.500000	2876.156006	7.663918
665.276550	930.874023	26762.740234	2884.001465	7.560923
665.615540	901.337036	26778.431641	2902.462158	7.733191
665.954407	944.719360	26719.818359	2836.004395	7.337644
666.293274	927.181763	26945.500000	2838.311768	7.345325
666.632080	933.642944	26957.962891	2842.465332	7.334764
666.970825	917.490051	26816.738281	2768.623047	7.147439
667.309570	941.488770	26777.505859	2734.932373	6.941641
667.648193	928.104858	26728.587891	2698.934326	6.863552
667.986755	933.643066	26770.125000	2734.470947	6.970097
668.325317	929.950867	26752.125000	2674.474121	6.755911
668.663818	925.335754	26778.894531	2643.091309	6.644175
669.002197	932.258423	26828.738281	2638.937500	6.590390
669.340637	913.336426	26777.972656	2616.323486	6.584229
669.679016	883.799500	26809.353516	2548.942383	6.422786
670.017334	929.950867	26792.277344	2586.786377	6.406367
670.355591	917.951538	26545.369141	2549.865234	6.367843
670.693848	908.721313	26676.900391	2488.945313	6.132463
671.032043	925.335754	26608.134766	2554.019043	6.341534
671.370117	921.182129	26513.062500	2514.790283	6.227007
671.708252	932.258423	26694.900391	2497.252686	6.074665
672.046265	916.105469	26765.511719	2453.408936	5.947152
672.384216	934.566040	26636.746094	2457.101074	5.923759
672.722168	898.567993	26789.509766	2430.333008	5.916220
673.059998	899.952515	26729.511719	2426.641113	5.910626
673.397827	935.027527	26703.667969	2430.333252	5.802812
673.735657	925.335754	26672.285156	2428.948730	5.839966
674.073425	926.720337	26647.824219	2367.567383	5.601809
674.411072	948.411438	26520.447266	2350.491455	5.482865
674.748657	907.798218	26728.589844	2389.258545	5.737471
675.086304	917.028503	26728.587891	2367.105957	5.617938
675.423828	918.874634	26547.212891	2323.723389	5.481623
675.761353	930.873901	26505.218750	2356.029297	5.572598
676.098755	916.567017	26611.363281	2367.105713	5.645262
676.436218	912.413391	26660.281250	2374.028564	5.676646
676.773560	946.103821	26659.363281	2301.570801	5.271471
677.110840	921.182129	26473.833984	2334.338379	5.530370
677.448120	935.489075	26721.666016	2327.877197	5.399746
677.785400	898.567993	26542.599609	2264.649902	5.327095
678.122498	921.643555	26635.824219	2320.492676	5.439991
678.459534	951.180542	26645.056641	2272.033936	5.140732
678.796631	929.027954	26445.218750	2314.493408	5.429750
679.133667	890.722168	26538.447266	2300.647705	5.497273
679.470581	908.259644	26566.134766	2332.492188	5.550859
679.807495	902.721558	26632.593750	2252.650146	5.246542
680.144409	942.411743	26765.972656	2303.416748	5.270400
680.481140	920.259094	26641.824219	2272.033691	5.255414
680.817932	944.257813	26627.978516	2293.263672	5.252377
681.154663	905.490601	26666.285156	2333.415527	5.543016
681.491394	918.412964	26474.292969	2315.416504	5.466466
681.828003	920.720581	26378.300781	2361.567627	5.659796
682.164551	899.029419	26619.208984	2374.951660	5.738382
682.501160	933.642944	26495.062500	2370.797852	5.622359
682.837585	918.413086	26511.214844	2387.873779	5.741695
683.174011	915.643921	26618.287109	2452.024414	5.977520
683.510376	896.721863	26611.365234	2452.024414	6.048315
683.846680	923.489746	26471.988281	2441.409424	5.941327
684.182983	919.797668	26483.062500	2515.713379	6.243004
684.519226	942.873352	26519.521484	2547.557861	6.274022
684.855408	913.797974	26505.675781	2609.862061	6.627353
685.191467	938.258179	26427.218750	2632.476318	6.646870
685.527588	914.720886	26487.677734	2625.092041	6.688202
685.863647	912.413391	26526.906250	2656.475098	6.808887
686.199646	922.566589	26575.828125	2706.780029	6.955113
686.535583	915.643921	26377.837891	2779.237793	7.319063
686.871460	895.337280	26423.988281	2763.084717	7.316279
687.207397	940.104187	26433.218750	2812.005371	7.342771
687.543152	904.567566	26329.839844	2805.544189	7.476721
687.878906	921.182129	26517.675781	2768.623047	7.217555
688.214600	913.336304	26385.222656	2821.235596	7.490216
688.550293	936.412109	26275.843750	2970.304688	8.026591
688.885803	924.874207	26346.916016	3005.841309	8.185680
689.221375	939.181152	26438.292969	3061.223145	8.322023
689.556946	932.720032	26402.300781	3191.369873	8.868030
689.892334	936.873657	26300.302734	3228.752686	9.036156
690.227661	937.335144	26345.072266	3282.750000	9.231105
690.563049	918.412964	26171.541016	3349.669189	9.627545
690.898376	919.336121	26346.453125	3438.280029	9.906526
691.233643	917.028503	26384.761719	3563.811768	10.392693
691.568848	953.488098	26203.384766	3599.348389	10.478698
691.904053	936.873657	26237.078125	3723.033936	11.012402
692.239136	926.258789	26245.384766	3874.410889	11.643973
692.574219	919.797546	26202.000000	3833.797607	11.525894
692.909241	922.566711	26189.541016	3945.945313	11.965733
693.244202	934.104492	26150.310547	4050.247559	12.357699
693.579102	927.181824	26395.837891	4167.472168	12.722659
693.913940	939.181274	26383.375000	4222.854004	12.905392
694.248779	941.027222	26174.771484	4344.232422	13.486723
694.583557	935.950562	26188.156250	4386.229492	13.663278
694.918274	944.719360	26345.531250	4490.532227	13.959447
695.252869	945.180847	26353.837891	4640.524414	14.543640
695.587524	916.567017	26154.925781	4640.062500	14.753319
695.922058	931.335449	26185.847656	4759.133301	15.156887
696.256592	916.567017	26161.847656	4858.820313	15.615803
696.591125	936.873657	26194.617188	4936.354492	15.834672
696.925537	923.951172	26238.000000	5084.500977	16.435734
697.259888	913.336426	26197.847656	5204.032715	16.969662
697.594238	902.721558	26205.693359	5376.177734	17.679567
697.928528	916.105469	26454.449219	5389.561523	17.516626
698.262756	951.641968	26464.603516	5579.705566	18.140049
698.596924	948.873047	26232.000000	5573.706055	18.292171
698.931030	927.181763	26166.003906	5731.543457	19.035603
699.265076	954.872681	26293.843750	5706.160156	18.750910
699.599121	919.336060	26160.003906	5889.842773	19.692453
699.933105	924.412720	26422.605469	5963.223633	19.761444
700.267090	940.104187	26238.921875	5987.222168	19.950016
700.600891	950.257507	26083.394531	6044.450195	20.268831
700.934692	919.797668	26385.683594	6193.980469	20.710775
701.268494	925.797241	26168.310547	6229.979004	21.012890
701.602234	919.797546	26166.464844	6351.356934	21.513966
701.935913	918.412964	26295.687500	6448.274414	21.790604
702.269592	923.951172	26197.847656	6529.963379	22.181036
702.603210	913.336304	26408.296875	6616.727539	22.370661
702.936707	930.412415	26010.933594	6656.417969	22.830488
703.270203	908.259766	26133.697266	6828.562500	23.469574
703.603638	922.566589	26358.916016	6879.790527	23.420122
703.937073	931.796997	26221.384766	7024.244629	24.090736
704.270386	900.413940	26263.380859	7198.235352	24.830776
704.603638	913.797852	26248.613281	7210.696289	24.854723
704.936890	971.025696	26172.925781	7438.684570	25.663378
705.270081	923.489624	26097.699219	7497.295898	26.113258
705.603149	929.027954	26251.843750	7592.368652	26.313585
705.936218	900.875488	26214.921875	7667.595215	26.731087
706.269287	945.180847	26327.994141	7739.591309	26.767761
706.602295	938.719727	26260.613281	7776.512695	27.003481
706.935242	946.565308	26063.085938	7939.426758	27.841679
707.268188	939.181152	26111.082031	8063.574219	28.302961
707.600952	934.566040	26076.470703	8132.339844	28.628595
707.933777	940.104187	26136.466797	8156.338379	28.639984
708.266541	926.720337	26017.855469	8225.565430	29.089338
708.599243	917.028503	26182.156250	8419.864258	29.696411
708.931885	920.259094	26177.541016	8368.173828	29.488188
709.264526	933.181519	26153.541016	8583.700195	30.334692
709.596985	950.718933	26013.240234	8552.779297	30.332386
709.929443	922.566711	26023.394531	8607.237305	30.615206
710.261902	945.642395	26126.773438	8688.925781	30.750340
710.594299	929.950867	26270.765625	8869.838867	31.332411
710.926636	914.259399	26056.623047	8992.140625	32.128567
711.258911	935.950562	26121.697266	9015.677734	32.080555
711.591187	927.643372	26137.851563	9167.515625	32.684666
711.923401	897.644897	26189.539063	9221.512695	32.911209
712.255493	901.337036	26081.083984	9212.744141	33.008305
712.587646	942.411804	26137.388672	9281.971680	33.100090
712.919678	914.720886	26122.621094	9437.040039	33.808128
713.251709	943.334778	26047.855469	9509.498047	34.121994
713.583618	917.951477	25919.093750	9618.876953	34.802113
713.915527	947.950012	26009.087891	9574.572266	34.422306
714.247375	952.565125	26017.394531	9784.099609	35.234764
714.579163	943.796265	26004.011719	9770.252930	35.220997
714.910889	894.875793	25951.398438	9740.716797	35.303543
715.242554	911.951843	26007.703125	10001.010742	36.217518
715.574219	915.182434	25886.787109	9870.864258	35.863461
715.905823	914.720886	26084.316406	10046.239258	36.279957
716.237305	943.334778	25848.019531	10040.700195	36.528728
716.568787	958.103210	25997.550781	10085.005859	36.450096
716.900269	926.720337	25978.628906	9929.937500	35.938248
717.231689	911.028809	25759.871094	9878.248047	36.087070
717.563049	880.568970	25727.103516	9632.721680	35.224842
717.894348	917.028503	25916.324219	9683.950195	35.068676
718.225586	944.257813	25672.183594	9491.037109	34.563267
718.556763	956.257202	25604.800781	9354.429688	34.071682
718.887878	912.413391	25614.033203	9397.349609	34.349716
719.219055	909.182739	25654.644531	9245.973633	33.690182
719.550110	904.106079	25653.261719	9392.273438	34.296795
719.881042	901.798523	25490.808594	9317.968750	34.227364
720.211975	916.567017	25536.035156	9243.205078	33.821354
720.542908	920.259155	25466.808594	9408.426758	34.579884
720.873718	920.259094	25642.644531	9609.646484	35.147854
721.204407	936.412109	25636.183594	9721.333984	35.566814
721.535217	931.796997	25707.720703	10015.779297	36.664555
721.865906	925.797241	25701.718750	10402.989258	38.251625
722.196533	944.719360	25560.496094	10580.671875	39.145432
722.527100	929.489441	25732.179688	10779.123047	39.711960
722.857727	929.950867	25534.652344	10849.272461	40.314739
723.188171	904.567566	25536.498047	11025.572266	41.088966
723.518616	925.797241	25647.722656	10884.810547	40.284134
723.849060	909.182800	25551.728516	10930.500000	40.666729
724.179321	944.719360	25538.804688	10769.892578	39.949329
724.509705	926.258789	25541.574219	10834.504883	40.252361
724.839905	934.104492	25540.652344	10863.119141	40.351109
725.170044	933.181519	25518.037109	10877.887695	40.450539
725.500183	939.642700	25546.191406	10904.654297	40.497398
725.830261	958.103333	25225.437500	10846.503906	40.747784
726.160278	933.642944	25314.509766	10953.575195	41.097523
726.490234	937.796570	25308.048828	11050.955078	41.497963
726.820251	919.797546	25337.583984	11198.638672	42.095711
727.150085	939.181274	25204.667969	11215.715820	42.350414
727.479919	926.720337	25331.125000	11370.783203	42.795811
727.809753	910.105774	25359.275391	11321.402344	42.583439
728.139465	951.180542	25246.205078	11320.017578	42.678848
728.469116	931.335449	25273.433594	11497.239258	43.405891
728.798767	922.105164	25224.052734	11548.929688	43.728283
729.128357	940.104187	25246.205078	11519.392578	43.525234
729.457886	901.337036	25096.675781	11512.930664	43.858009
729.787415	916.105469	25061.599609	11518.468750	43.910316
730.116821	943.796265	25035.292969	11615.848633	44.298008
730.446167	907.336731	24972.066406	11769.070313	45.135487
730.775513	936.873535	25187.128906	11775.533203	44.695034
731.104797	935.489075	25041.753906	11827.221680	45.182163
731.433960	918.412964	25040.371094	11868.296875	45.393841
731.763123	920.720581	25080.521484	12034.903320	46.002792
732.092285	919.336060	24912.994141	12172.434570	46.900303
732.421387	916.567017	24986.833984	12200.125000	46.877575
732.750427	913.797852	24957.759766	12542.568359	48.364620
733.079346	929.027832	24986.833984	12567.951172	48.378990
733.408325	919.797546	24966.990234	12735.481445	49.135395
733.737183	948.411499	24991.910156	12825.476563	49.398243
734.066040	897.183411	24934.683594	12951.007813	50.145916
734.394775	936.411987	24884.378906	13128.690430	50.911537
734.723511	912.413391	24845.150391	13013.312500	50.562122
735.052185	932.258484	24976.681641	13197.918945	51.012493
735.380737	957.180176	24723.771484	13172.534180	51.397160
735.709351	911.028809	24735.771484	13238.994141	51.744377
736.037842	955.795715	24756.539063	13186.841797	51.389343
736.366333	934.104492	24749.615234	13308.220703	51.958221
736.694702	914.259460	24607.468750	13338.679688	52.438740
737.023010	914.259399	24683.619141	13232.533203	51.824169
737.351318	928.104858	24780.537109	13362.679688	52.131268
737.679626	932.258484	24437.171875	13340.526367	52.790100
738.007874	909.182800	24587.164063	13468.826172	53.043560
738.335999	931.796997	24442.707031	13372.372070	52.914051
738.664124	933.181519	24275.640625	13502.978516	53.849499
738.992188	925.335754	24468.091797	13319.294922	52.644470
739.320190	950.257629	24304.716797	13401.447266	53.313972
739.648132	926.258789	24299.640625	13353.909180	53.170097
739.976074	940.565613	24247.949219	13382.525391	53.382053
740.303894	932.258484	24409.941406	13637.279297	54.115307
740.631714	919.797546	24208.722656	13478.981445	53.927708
740.959412	920.720581	24327.330078	13620.203125	54.255966
741.287109	909.182739	24121.957031	13469.289063	54.108601
741.614746	947.950012	24260.871094	13563.437500	54.113712
741.942322	926.720337	24100.265625	13579.129883	54.598507
742.269836	933.181458	24026.423828	13575.898438	54.746391
742.597351	922.105164	23995.964844	13542.208008	54.694374
742.924866	953.026672	23954.427734	13628.510742	55.107445
743.252197	912.413391	23994.117188	13816.346680	55.905464
743.579590	924.412720	23922.583984	13895.728516	56.401508
743.906860	917.028503	24017.193359	13825.578125	55.880772
744.234131	957.180298	23978.886719	13775.734375	55.680290
744.561279	945.642395	23794.744141	13832.039063	56.397827
744.888428	935.489075	23811.357422	13995.876953	57.092422
745.215515	922.566711	23636.445313	13791.426758	56.656376
745.542542	917.028503	23707.056641	13730.966797	56.226078
745.869507	893.491211	23772.128906	13837.115234	56.575153
746.196472	944.257813	23567.216797	13822.807617	56.926903
746.523376	935.027527	23477.683594	13820.962891	57.162453
746.850098	934.104492	23528.449219	13812.656250	56.999008
747.176880	943.796265	23528.912109	13849.114258	57.140812
747.503601	935.950562	23455.992188	13761.888672	56.953442
747.830322	936.411987	23553.833984	13869.421875	57.181625
748.156921	941.488770	23347.996094	13917.418945	57.911434
748.483521	913.336304	23296.771484	13841.268555	57.756695
748.809998	932.258484	23391.380859	13909.111328	57.779873
749.136536	946.565430	23186.005859	13944.646484	58.446075
749.462952	903.644531	23245.082031	13752.197266	57.509964
749.789307	938.719727	23175.390625	13900.804688	58.291481
750.115662	909.182800	23150.470703	13710.661133	57.557274
750.441895	925.797241	23102.472656	13602.206055	57.160999
750.768005	921.182129	22955.250000	13576.822266	57.436695
751.094177	904.567566	22916.943359	13594.359375	57.648445
751.420349	939.642700	22792.794922	13622.510742	58.036789
751.746399	922.566711	22732.337891	13587.898438	58.071823
752.072327	930.412415	22718.492188	13534.362305	57.847916
752.398254	932.720032	22672.341797	13453.135742	57.592613
752.724243	920.720581	22592.500000	13490.057617	57.998638
753.050049	942.411743	22621.113281	13563.437500	58.218548
753.375854	927.181824	22402.355469	13322.065430	57.717270
753.701599	898.567871	22459.121094	13400.984375	57.987457
754.027283	927.181824	22461.429688	13444.828125	58.129017
754.352966	929.489441	22407.433594	13433.752930	58.219093
754.678528	940.565735	22428.199219	13501.595703	58.457024
755.004089	912.874878	22327.589844	13380.215820	58.218571
755.329590	916.105469	22259.287109	13372.370117	58.361797
755.654968	904.567566	22177.597656	13430.521484	58.881855
755.980347	918.413086	22084.371094	13263.914063	58.327156
756.305725	940.104187	22017.453125	13218.224609	58.252674
756.630981	918.874634	21940.378906	13293.914063	58.868477
756.956177	903.644653	21880.845703	13178.534180	58.515385
757.281311	910.567261	22013.298828	13318.833984	58.799335
757.606506	922.566711	21863.308594	13087.155273	58.090534
757.931580	922.105164	21793.156250	13120.384766	58.445927
758.256592	926.258789	21777.464844	12972.237305	57.771133
758.581543	936.873657	21621.011719	13059.464844	58.608150
758.906494	907.336731	21631.626953	12837.013672	57.563740
759.231384	935.950562	21519.478516	12809.786133	57.686108
759.556152	926.258789	21381.947266	11947.215820	53.877228
759.880981	926.258789	21077.808594	10838.658203	49.189262
760.205627	952.565063	20978.123047	9360.428711	41.985661
760.530334	931.335449	20565.990234	7993.424316	35.967472
760.854858	935.489075	20330.617188	6877.482910	30.636526
761.179443	942.411743	20079.554688	6106.754395	26.985966
761.503967	935.489075	20057.863281	5905.534180	25.990730
761.828430	936.873657	20011.253906	5978.915039	26.433578
762.152710	908.259766	19968.330078	6349.972168	28.550327
762.477051	908.721313	19964.175781	6659.648438	30.179953
762.801392	925.797241	20024.171875	6781.026367	30.658258
763.125610	888.876160	19954.021484	6717.337402	30.571295
763.449829	908.721313	19955.871094	6599.189941	29.875696
763.773926	899.952515	19670.191406	6639.803223	30.579529
764.098083	946.103882	19699.728516	6674.416992	30.545097
764.422119	920.259094	19882.488281	6838.253906	31.209383
764.746094	937.796692	19762.033203	7035.320313	32.391876
765.070007	911.028809	19716.804688	7374.533691	34.369785
765.393860	913.797974	19815.107422	7726.668945	36.044441
765.717651	912.874817	19843.722656	8094.957031	37.938511
766.041443	924.874207	19771.724609	8378.789063	39.549927
766.365173	920.259094	19731.574219	8692.618164	41.317467
766.688843	935.489075	19887.564453	9071.521484	42.929504
767.012390	901.337036	19854.335938	9379.812500	44.734219
767.335938	941.488770	19708.037109	9845.942383	47.448540
767.659485	918.412964	19910.179688	10091.466797	48.300159
767.982910	943.334778	19888.025391	10334.685547	49.572464
768.306335	925.335754	19750.957031	10699.281250	51.918316
768.629700	922.105164	19715.880859	10840.503906	52.774914
768.953064	917.028503	19667.423828	10992.341797	53.733875
769.276306	914.720886	19679.884766	11127.105469	54.422039
769.599487	911.490356	19660.960938	11220.791992	54.984493
769.922668	912.874878	19544.199219	11296.018555	55.729500
770.245728	908.721313	19840.029297	11360.169922	55.207214
770.568787	916.567017	19719.574219	11344.939453	55.461189
770.891724	895.337280	19603.271484	11453.395508	56.436264
771.214600	952.565125	19612.501953	11453.857422	56.277210
771.537537	923.951172	19395.589844	11412.782227	56.783436
771.860352	914.720886	19435.744141	11379.552734	56.502449
772.183044	905.029114	19356.824219	11440.934570	57.099621
772.505798	950.719055	19228.062500	11486.162109	57.642094
772.828491	920.720581	19269.136719	11407.705078	57.154713
773.151062	964.564453	19189.294922	11308.479492	56.757576
773.473694	938.258179	19159.759766	11363.861328	57.215939
773.796204	898.106445	19132.066406	11321.863281	57.166718
774.118652	936.412109	19102.992188	11264.173828	56.850334
774.441101	946.565430	18985.304688	11250.791016	57.122761
774.763428	924.412720	18958.537109	11209.715820	57.032448
775.085754	932.719910	18737.470703	10998.804688	56.535954
775.408020	936.873657	18680.244141	11060.646484	57.056644
775.730225	915.643921	18636.400391	10998.804688	56.900288
776.052307	965.949036	18717.164063	11084.184570	57.000240
776.374390	915.643921	18675.167969	11062.032227	57.132099
776.696472	938.258179	18721.318359	10979.419922	56.464760
777.018372	923.951294	18545.019531	10985.880859	57.101700
777.340332	935.950562	18466.564453	10920.807617	56.956692
777.662231	931.335449	18427.796875	10828.966797	56.569332
777.984009	919.797668	18436.566406	10802.660156	56.419434
778.305786	947.026855	18467.025391	10925.883789	56.956955
778.627563	924.874207	18402.412109	10896.347656	57.053082
778.949280	893.952820	18265.802734	10790.199219	56.967140
779.270874	934.566040	18378.416016	10795.737305	56.530933
779.592468	937.796692	18337.339844	10686.359375	56.027695
779.913940	930.873901	18253.343750	10673.436523	56.242336
780.235413	936.412109	18335.955078	10820.197266	56.804855
780.556824	941.027222	18400.105469	10831.736328	56.650810
780.878174	930.873901	18320.263672	10726.510742	56.331108
781.199402	913.336426	18331.800781	10795.275391	56.732552
781.520691	920.259094	18419.949219	10795.738281	56.432312
781.841858	906.413696	18309.187500	10736.663086	56.486679
782.162964	923.028198	18424.103516	10871.887695	56.847130
782.484070	936.411987	18399.644531	10835.427734	56.684898
782.805115	935.489075	18338.722656	10948.499023	57.535339
783.126099	934.566040	18445.333984	10824.813477	56.480946
783.447021	946.103882	18424.564453	10864.502930	56.746410
783.767883	898.106445	18507.638672	10701.587891	55.671452
784.088745	917.951538	18444.871094	10779.583984	56.265636
784.409485	921.643677	18535.791016	10885.271484	56.566055
784.730286	968.256531	18637.324219	10991.418945	56.727169
785.050903	929.950867	18617.941406	10829.888672	55.969826
785.371521	931.796997	18805.777344	10918.039063	55.870277
785.692078	918.413086	18739.318359	10931.884766	56.189465
786.012512	932.720032	18684.859375	10969.266602	56.537113
786.333008	920.259094	18767.470703	11068.031250	56.859150
786.653381	932.258484	18930.847656	11088.337891	56.427082
786.973755	945.180847	18939.615234	11113.259766	56.506802
787.293945	917.490051	18987.613281	11026.494141	55.943195
787.614258	957.641724	18921.154297	11111.414063	56.524429
787.934387	926.258789	19075.761719	11034.340820	55.693436
788.254578	943.334839	19174.066406	11176.025391	56.128796
788.574646	890.722168	19088.222656	10982.650391	55.457771
788.894653	899.952515	19100.683594	11090.182617	55.988029
789.214661	920.720581	19121.914063	11095.259766	55.900394
789.534607	922.105164	19054.070313	10963.728516	55.380775
789.854431	908.721313	19163.449219	10983.574219	55.190372
790.174255	960.872253	19055.457031	10978.036133	55.360012
790.494019	935.950562	19146.835938	11022.340820	55.386604
790.813660	951.642090	19185.603516	11047.262695	55.367130
791.133362	930.873901	19147.759766	11018.648438	55.375954
791.453003	906.413696	19312.058594	10986.804688	54.767929
791.772522	888.414673	19278.828125	11049.107422	55.249939
792.091919	938.719604	19355.900391	10953.114258	54.375282
792.411377	932.720032	19228.521484	10999.265625	55.021072
792.730774	931.335449	19290.828125	10868.657227	54.126347
793.050171	909.182800	19330.980469	10887.579102	54.166248
793.369446	910.105774	19216.984375	10857.119141	54.334843
793.688599	917.028503	19160.218750	10893.579102	54.686440
794.007813	899.029419	19194.832031	10878.348633	54.544312
794.326965	939.181152	19285.291016	10908.808594	54.341915
794.645996	907.336731	19237.753906	10790.661133	53.917614
794.965027	938.719604	19178.216797	10920.808594	54.727871
795.283997	924.874207	19226.675781	10806.814453	53.994362
795.602905	912.413269	19250.675781	10825.736328	54.058140
795.921692	933.181458	19222.062500	10830.350586	54.115772
796.240540	952.565063	19129.298828	10839.120117	54.391258
796.559265	929.950867	19032.839844	10765.278320	54.330154
796.877930	938.258179	18962.691406	10752.355469	54.448856
797.196533	924.412720	18923.921875	10820.198242	54.978081
797.515137	918.413086	18940.539063	10742.202148	54.509605
797.833679	952.103638	18918.847656	10807.275391	54.852299
798.152161	930.873901	18951.613281	10826.197266	54.910748
798.470581	929.027832	18938.693359	10796.661133	54.790760
798.788940	901.337036	18882.386719	10797.583984	55.037094
799.107300	911.490356	18871.312500	10755.585938	54.811768
799.425537	920.259094	18799.777344	10796.199219	55.236057
799.743774	963.641418	18754.087891	10683.127930	54.633175
800.061890	915.182434	18646.554688	10571.441406	54.458607
800.380005	925.797241	18692.244141	10529.906250	54.057568
800.697998	898.567993	18547.328125	10452.833008	54.135616
801.015991	925.335754	18564.404297	10522.521484	54.408688
801.333923	933.181519	18341.955078	10391.451172	54.330475
801.651855	942.873352	18389.027344	10256.227539	53.383423
801.969604	945.180847	18453.640625	10302.840820	53.446510
802.287354	905.029175	18233.037109	10267.303711	54.029720
802.605103	933.642944	18107.505859	10259.919922	54.305065
802.922791	944.719360	18181.347656	10165.309570	53.494160
803.240417	932.720032	18202.115234	10180.539063	53.550339
803.557983	918.413086	18095.042969	10148.233398	53.734760
803.875488	928.104858	17850.902344	10034.239258	53.809868
804.192932	920.259094	17987.050781	10024.547852	53.345055
804.510376	960.872375	17956.589844	9876.401367	52.457508
804.827759	898.106445	17884.593750	9911.938477	53.064716
805.144958	938.719604	17744.753906	9928.552734	53.491695
805.462280	956.718750	17608.146484	9749.023438	52.802109
805.779419	907.798218	17674.144531	9903.630859	53.654106
806.096497	926.258789	17178.941406	9580.571289	53.248516
806.413635	932.258484	17542.150391	9832.558594	53.584332
806.730652	932.720032	17372.775391	9821.020508	54.064911
807.047546	924.874207	17376.929688	9692.256836	53.290504
807.364441	963.179871	17243.550781	9647.952148	53.345051
807.681335	936.873657	17175.708984	9695.950195	53.939068
807.998108	935.027527	17048.330078	9585.647461	53.686203
808.314941	904.106079	17129.095703	9635.952148	53.817268
808.631592	912.413391	17094.943359	9440.270508	52.697922
808.948242	930.873901	17017.410156	9449.962891	52.957882
809.264832	928.104858	16954.181641	9393.197266	52.820740
809.581421	938.258179	16834.650391	9333.199219	52.810356
809.897827	925.335754	16739.578125	9212.283203	52.401798
810.214294	918.413086	16654.660156	9072.443359	51.816868
810.530640	926.720337	16529.589844	9106.595703	52.425457
810.846924	926.720337	16414.208984	9004.601563	52.157467
811.163208	926.720337	16459.900391	8939.066406	51.582138
811.479370	919.336060	16344.060547	8891.991211	51.687504
811.795532	919.797668	16338.984375	8834.302734	51.328938
812.111633	931.796997	16224.989258	8798.304688	51.437969
812.427673	925.335754	16186.684570	8746.615234	51.248940
812.743713	925.335815	16010.846680	8757.691406	51.919724
813.059570	948.411438	16060.690430	8666.312500	51.070396
813.375488	912.413391	15930.081055	8452.169922	50.205906
813.691345	908.259766	15913.466797	8335.868164	49.500206
814.007141	936.873657	15818.856445	8116.186523	48.241646
814.322815	925.335754	15625.021484	8042.806152	48.419201
814.638489	941.488770	15616.252930	7935.735352	47.661732
814.954102	925.335754	15473.184570	7759.897461	46.979877
815.269714	910.105774	15462.106445	7686.517090	46.566868
815.585205	938.719604	15406.724609	7601.137695	46.049320
815.900696	919.797546	15359.190430	7512.064941	45.654743
816.215942	946.103882	15194.427734	7368.995117	45.078220
816.531311	916.105469	15035.666992	7204.696777	44.538147
816.846558	912.413391	14892.598633	7096.240723	44.232796
817.161804	941.027222	14861.676758	7076.395996	44.073868
817.476990	929.027832	14894.906250	7057.011719	43.878254
817.792114	924.412720	14851.523438	6997.476563	43.606060
818.107178	935.489075	14665.533203	6995.168945	44.134453
818.422180	944.257813	14830.754883	7024.244629	43.783443
818.737122	912.874817	14624.919922	6990.092285	44.320286
819.052063	912.413391	14519.695313	6970.247070	44.519054
819.366943	928.566406	14582.921875	6970.247070	44.247280
819.681702	937.796692	14477.697266	6948.094727	44.389526
819.996460	920.720581	14380.317383	6910.250000	44.500065
820.311157	914.721008	14388.625000	6943.018066	44.740536
820.625793	899.029480	14228.940430	6998.399902	45.757023
820.940369	953.949585	14357.703125	7132.700195	46.097164
821.254761	916.105469	14127.869141	7090.240723	46.732105
821.569214	901.337036	14138.021484	7193.620117	47.536701
821.883667	929.027832	14049.873047	7156.699219	47.463947
822.198059	938.258118	14097.872070	7080.549316	46.675312
822.512329	915.182434	13963.109375	6979.016602	46.473545
822.826538	928.566406	13946.033203	6683.646973	44.210449
823.140808	927.643372	13629.434570	6416.891602	43.216331
823.454895	917.951477	13733.736328	6238.747559	41.517517
823.769043	928.104858	13647.893555	6240.131836	41.761909
824.083008	910.105774	13758.197266	6328.742676	42.174641
824.396973	919.336060	13607.744141	6517.963379	44.123955
824.710938	915.643921	13562.052734	6501.810059	44.171955
825.024841	933.642944	13501.130859	6625.958008	45.293976
825.338623	953.949585	13565.284180	6700.261719	45.564659
825.652405	911.490356	13473.442383	6835.946777	47.161911
825.965942	926.720337	13464.673828	6765.334961	46.567528
826.279602	922.105164	13287.912109	6743.182617	47.073982
826.593201	924.412720	13364.062500	6757.950684	46.894714
826.906799	931.796997	13321.142578	6744.105469	46.913765
827.220215	910.567261	13216.840820	6772.257813	47.631725
827.533691	937.796692	13261.607422	6621.342285	46.118408
827.847046	906.413696	13023.927734	6502.733398	46.183731
828.160339	946.103882	13104.693359	6419.199707	45.014233
828.473572	911.951843	12995.314453	6367.510254	45.149342
828.786865	914.259399	12931.164063	6347.664551	45.214684
829.099976	934.104492	12889.166016	6202.288086	44.066555
829.413086	968.718079	12822.246094	6202.749023	44.155888
829.726074	921.182129	12786.708984	6121.984375	43.831192
830.039063	921.643677	12669.485352	6172.290039	44.694561
830.351990	937.335144	12661.638672	6161.674805	44.559917
830.664917	925.797241	12549.491211	6045.373535	44.044312
830.977600	937.335083	12635.793945	6177.366211	44.792492
831.290405	935.489075	12541.645508	6139.983398	44.842529
831.603088	928.104797	12432.728516	6045.834473	44.484108
831.915771	912.413391	12429.958984	6117.369629	45.191536
832.228394	906.413757	12332.580078	5967.377441	44.292755
832.540894	908.721191	12368.115234	5952.147461	44.011280
832.853394	921.643677	12313.195313	5969.684570	44.313900
833.165833	943.334778	12210.740234	5926.763672	44.228718
833.478210	950.257507	12231.508789	5836.768555	43.315331
833.790527	944.719360	12100.899414	5847.844727	43.949860
834.102783	933.642944	12047.364258	5788.771973	43.685898
834.414978	940.565735	12079.208008	5801.693848	43.642014
834.727173	946.565308	11997.982422	5797.540039	43.894592
835.039246	914.720886	12055.670898	5780.925781	43.678547
835.351318	932.258423	11792.607422	5829.845703	45.096043
835.663208	957.641785	11936.599609	5819.231445	44.280975
835.975159	912.874878	11898.755859	5801.231934	44.496723
836.286987	921.643677	11771.377930	5815.077148	45.101875
836.598877	946.565430	11675.382813	5760.618652	44.870308
836.910645	925.797241	11768.609375	5843.691895	45.356262
837.222351	914.720886	11697.075195	5783.232910	45.152588
837.533997	896.721863	11615.848633	5782.309570	45.578224
837.845581	932.720032	11618.156250	5855.229492	46.067459
838.157166	910.105774	11578.004883	5762.464844	45.485607
838.468689	932.719910	11470.470703	5683.545898	45.083874
838.780090	916.105469	11462.164063	5708.467773	45.442211
839.091431	922.105103	11342.169922	5710.313477	45.951813
839.402771	912.413391	11305.710938	5606.934570	45.168732
839.714050	896.260376	11380.013672	5630.471680	45.157600
840.025269	932.720032	11167.255859	5654.008789	46.130947
840.336487	953.026550	11191.716797	5597.243164	45.359482
840.647400	929.489380	11132.181641	5597.242676	45.750214
840.958496	913.797974	11246.637695	5600.935059	45.361557
841.269470	905.029114	11151.103516	5552.937500	45.362820
841.580444	929.489380	11012.649414	5551.091797	45.834862
841.891296	920.720703	11035.724609	5449.096680	44.768902
842.202087	905.029114	11038.032227	5476.787598	45.117508
842.512878	897.183411	10974.343750	5498.017578	45.656055
842.823547	910.105774	10867.272461	5438.943848	45.483196
843.134216	929.027832	10873.271484	5417.252930	45.133900
843.444885	920.720581	10743.125000	5408.945313	45.693748
843.755432	947.026855	10820.659180	5324.488281	44.334862
844.065918	935.027527	10670.206055	5353.102539	45.382580
844.376343	924.874207	10668.359375	5316.642090	45.073891
844.686768	922.566711	10718.665039	5239.107910	44.063877
844.997070	908.721191	10667.437500	5194.802246	43.920540
845.307312	924.874207	10553.904297	5264.491211	45.068062
845.617432	899.491028	10529.443359	5265.875977	45.341709
845.927612	926.258789	10535.905273	5250.645508	45.000477
846.237671	899.952454	10436.217773	5251.106934	45.627445
846.547729	916.567017	10446.833008	5261.260742	45.588383
846.857727	963.641479	10446.372070	5215.570801	44.838657
847.167664	928.104858	10318.070313	5162.958008	45.099770
847.477478	927.181824	10252.536133	5164.342773	45.436996
847.787292	923.489624	10206.383789	5144.958984	45.475784
848.097107	938.719604	10284.841797	5060.040039	44.096581
848.406799	936.412109	10163.924805	5066.501465	44.758427
848.716492	940.104187	10194.384766	5001.428223	43.885899
849.026123	935.027527	10054.083984	4948.354004	44.010323
849.335632	941.488770	10047.162109	4991.274902	44.475414
849.645142	936.873657	10001.933594	4894.818848	43.661549
849.954529	928.104858	9797.944336	4748.518555	43.071957
850.263794	931.796997	9911.014648	4725.442871	42.249180
850.573120	945.642395	9816.866211	4611.910645	41.327652
850.882385	912.874878	9792.406250	4660.831055	42.208939
851.191589	915.182434	9731.948242	4676.522461	42.661224
851.500671	938.258118	9768.408203	4730.980957	42.951962
851.809814	921.182129	9698.256836	4728.211914	43.374702
852.118896	927.181824	9640.568359	4662.676758	42.870758
852.427856	921.643677	9579.185547	4681.137695	43.424500
852.736755	907.336731	9651.644531	4710.213379	43.489742
853.045654	941.027222	9514.575195	4671.907227	43.516174
853.354492	929.489380	9556.572266	4651.139160	43.139145
853.663208	914.720886	9502.114258	4604.987305	42.973068
853.971924	930.873840	9327.662109	4498.377930	42.486534
854.280579	906.413696	9340.122070	4295.311523	40.182774
854.589172	915.643921	9274.125000	4149.473633	38.689201
854.897705	953.949585	9190.591797	4101.014160	38.208099
855.205994	939.642761	9243.204102	4126.858887	38.383724
855.514465	933.181519	9183.668945	4204.393555	39.648712
855.822754	929.027832	9198.437500	4225.161133	39.859352
856.131104	954.872681	9120.441406	4354.385742	41.632290
856.439331	945.180847	9063.674805	4317.002930	41.532604
856.747559	927.643372	9047.522461	4368.692383	42.378082
857.055664	932.258423	9155.516602	4419.458984	42.406559
857.363831	908.259644	9101.981445	4457.303223	43.314182
857.671814	926.258789	9014.292969	4394.998535	42.887302
857.979797	929.027954	8907.221680	4428.689453	43.865337
858.287720	908.259766	8953.373047	4428.227539	43.752869
858.595581	939.181274	8892.915039	4351.154785	42.897758
858.903381	931.335449	8944.142578	4380.230469	43.042282
859.211121	929.027832	8900.760742	4344.693848	42.847221
859.518799	911.490356	8779.843750	4341.001465	43.586136
859.826294	907.798218	8777.537109	4310.080078	43.232460
860.133850	901.798523	8733.692383	4234.853027	42.557449
860.441345	936.412109	8792.304688	4279.620117	42.556690
860.748840	941.027222	8648.312500	4228.392090	42.652695
861.056213	938.719604	8654.773438	4259.313477	43.034870
861.363586	916.105469	8611.391602	4180.855957	42.425331
861.670898	927.181824	8483.552734	4113.013184	42.160862
861.978088	921.643677	8567.085938	4146.242676	42.176750
862.285278	947.026978	8498.320313	4130.551270	42.158665
862.592407	930.412415	8420.325195	4072.861816	41.955757
862.899475	947.950012	8414.786133	4133.781738	42.666424
863.206482	935.027527	8373.711914	4097.322266	42.511478
863.513428	917.951538	8415.708984	4113.475098	42.619724
863.820313	922.566711	8360.327148	4089.937988	42.585014
864.127197	932.720032	8308.176758	4039.171387	42.118767
864.433960	924.874329	8338.636719	4032.248779	41.913597
864.740540	921.643677	8192.798828	3955.175781	41.720085
865.047180	897.644897	8268.948242	4010.557861	42.230160
865.353821	930.412415	8108.340820	3941.792236	41.953331
865.660400	949.334473	8181.721680	3877.180176	40.482426
865.966858	946.565430	8141.570313	3758.109375	39.076332
866.273315	907.336731	7998.962402	3708.727295	39.502800
866.579712	941.027222	7985.117188	3636.730957	38.269012
866.885986	924.874207	7862.354004	3541.197754	37.712879
867.192322	938.258118	7945.888184	3633.962158	38.468128
867.498474	929.489380	7867.430664	3626.115967	38.867817
867.804626	919.336121	7882.661133	3666.268066	39.448566
868.110779	933.181458	7903.428711	3696.727783	39.647755
868.416809	912.413391	7810.664063	3761.339844	41.299263
868.722778	923.028198	7816.203125	3705.496582	40.365555
869.028748	927.643372	7760.821777	3722.572754	40.902336
869.334473	931.796875	7714.208008	3700.881592	40.827438
869.640320	900.875488	7682.363281	3668.114014	40.805775
869.946045	913.797974	7685.132813	3711.957764	41.323605
870.251709	919.797668	7695.286133	3698.112549	41.005383
870.557373	902.260071	7632.520508	3737.802734	42.131248
870.862976	889.337708	7447.453125	3650.576660	42.104156
871.168518	897.183289	7578.522461	3667.652344	41.465775
871.473999	911.490356	7520.372070	3619.655029	40.977650
871.779419	930.873901	7534.678711	3572.580566	40.002796
872.084717	941.027222	7383.764160	3552.735596	40.537254
872.390076	901.798523	7491.296875	3585.502686	40.726986
872.695313	914.259399	7401.762695	3562.888672	40.826637
873.000488	928.104858	7324.228027	3547.197266	40.948124
873.305664	911.490356	7303.459961	3518.583496	40.787010
873.610718	933.181458	7261.924316	3519.968018	40.873627
873.915649	927.181824	7255.924805	3531.044434	41.143440
874.220581	917.028503	7164.083496	3467.817139	40.831856
874.525452	925.797241	7207.003906	3521.813965	41.329903
874.830322	926.258789	7212.081055	3441.049316	40.007343
875.135071	955.795715	7155.313965	3462.278809	40.430290
875.439819	937.796570	7120.700684	3416.127441	40.083603
875.744446	936.412109	7069.472656	3439.203125	40.808189
876.049072	917.951538	7073.626465	3417.973389	40.613289
876.353638	964.102905	7060.242188	3369.975830	39.465519
876.658142	941.488647	7045.012695	3348.284668	39.432892
876.962585	947.488464	7029.782715	3349.207764	39.487061
877.267029	950.257507	6935.634277	3313.671143	39.486462
877.571350	921.182129	6932.403320	3316.901855	39.854126
877.875610	912.413391	6824.870117	3321.055420	40.738434
878.179810	938.719604	6886.251465	3257.366699	38.985027
878.483948	947.026855	6824.870117	3263.366211	39.407982
878.788086	923.028137	6817.947754	3277.673096	39.943634
879.091980	913.336426	6711.337402	3249.059082	40.284966
879.395935	935.950562	6708.106934	3204.292236	39.297997
879.699890	898.106445	6653.648438	3170.601807	39.483604
880.003784	914.259399	6516.117676	3114.758545	39.281590
880.307617	917.028503	6601.036133	3142.449463	39.152321
880.611328	909.182800	6583.036621	3160.448486	39.677891
880.915039	942.411804	6531.809570	3127.219482	39.088425
881.218628	928.104858	6502.733398	3088.913818	38.761490
881.522217	931.335449	6465.812500	3112.450928	39.409603
881.825745	909.644226	6505.963867	3048.762207	38.223656
882.129211	942.411743	6449.659180	3064.915039	38.540184
882.432678	938.719727	6368.432617	3056.146484	38.997028
882.736023	908.259644	6442.737305	3064.915039	38.967640
883.039307	928.104858	6333.357910	3061.684326	39.472336
883.342529	920.259094	6277.514648	3022.455811	39.240181
883.645630	909.644226	6331.511719	3026.147949	39.036430
883.948730	930.412415	6260.438477	3045.992920	39.691750
884.251770	934.566101	6187.519531	3053.377441	40.335617
884.554749	930.873901	6138.137695	2969.843018	39.156250
884.857727	909.644226	6196.749512	2955.074707	38.687149
885.160645	926.258789	6172.750977	2933.845215	38.265308
885.463440	921.643677	6092.447754	2913.538574	38.521957
885.766235	912.413391	6106.292969	2940.306152	39.043896
886.068970	923.489624	6010.759277	2840.157715	37.675774
886.371582	943.334839	5991.375977	2884.001465	38.443954
886.674255	931.796997	5945.686035	2854.464355	38.346825
886.976746	929.950867	5919.841309	2833.235107	38.142803
887.279236	941.950195	5970.608398	2780.160889	36.554695
887.581665	931.335449	5809.077637	2764.930908	37.591068
887.884094	941.027222	5866.305664	2789.391113	37.528111
888.186340	941.027222	5804.462402	2722.010254	36.619858
888.488464	942.873352	5829.384766	2753.393066	37.051380
888.790710	934.566040	5758.311523	2696.626709	36.528889
889.092834	937.335144	5702.467773	2709.087646	37.181595
889.394958	930.412415	5689.545410	2729.394287	37.800625
889.696960	927.643372	5605.088867	2710.933838	38.125309
889.998901	928.566284	5610.626953	2701.241699	37.861012
890.300842	912.413269	5638.778809	2697.550049	37.769753
890.602661	940.565735	5581.551758	2654.167480	36.923229
890.904480	970.564148	5512.324219	2653.244629	37.049080
891.206238	950.257507	5546.014648	2640.783691	36.784496
891.507874	929.027832	5504.478516	2635.245605	37.290703
891.809509	919.336121	5426.020996	2578.940674	36.825394
892.111023	905.952148	5508.170898	2587.709473	36.542316
892.412537	927.181824	5384.485352	2572.018066	36.902042
892.713989	944.719360	5420.020996	2614.938721	37.320820
893.015259	918.874512	5351.717285	2580.786621	37.490887
893.316589	923.951172	5423.252441	2535.558350	35.819054
893.617859	930.412415	5343.410156	2491.714600	35.379631
893.919067	924.412720	5382.638672	2486.637939	35.041409
894.220276	905.952148	5316.180664	2493.099121	35.987862
894.521301	934.104492	5231.723633	2415.564697	34.471649
894.822388	939.642700	5291.720215	2449.255371	34.687172
895.123352	897.183411	5223.416992	2389.258301	34.489006
895.424255	919.336121	5232.185059	2416.487793	34.713749
895.725159	941.027222	5275.106445	2320.954346	31.838993
896.025940	930.873901	5202.186523	2278.033447	31.539709
896.326660	908.259644	5156.035645	2321.416016	33.268147
896.627380	933.642944	5212.801758	2266.034424	31.136763
896.928040	915.182434	5140.805664	2226.805420	31.039755
897.228577	930.873901	5186.957031	2224.497803	30.394705
897.529114	901.798523	5184.649414	2194.499512	30.183186
897.829407	927.181824	5097.884277	2194.037842	30.375120
898.129822	933.181519	5120.037598	2205.114258	30.379185
898.430176	924.412720	5156.497070	2220.805908	30.632498
898.730469	901.798523	5097.885254	2145.579102	29.641438
899.030640	935.950562	5096.038574	2068.506104	27.224318
899.330811	950.257507	5093.270020	2072.659912	27.091454
899.630920	917.490051	5088.654297	2121.118652	28.855942
899.930969	928.104858	5082.193359	2116.503662	28.607933
900.230957	913.797852	5109.883789	2109.119629	28.486589
900.530945	928.566284	5110.807129	2088.351074	27.731182
900.830750	932.258484	5091.423340	2039.892212	26.631157
901.130554	893.491211	5021.273438	2077.736328	28.689623
901.430359	924.874207	4962.661133	2067.121582	28.288946
901.730042	933.181519	5057.271973	2140.040771	29.263647
902.029724	930.412415	4995.428711	2098.042969	28.723885
902.329163	933.181519	5034.657227	2068.044678	27.669630
902.628662	926.258789	5083.116211	2109.580811	28.466745
902.928162	921.182129	5102.500000	2140.040771	29.150106
903.227539	920.720581	5058.194336	2184.346191	30.540995
903.526855	901.337036	5087.731445	2239.266357	31.958988
903.826172	939.181152	5102.961426	2271.110840	31.988472
904.125366	942.873230	5133.882813	2217.575195	30.415150
904.424561	905.952148	5105.268555	2225.421143	31.421043
904.723633	906.413696	5038.811035	2254.958008	32.633461
905.022705	912.874878	5117.729980	2316.800781	33.388210
905.321716	922.105164	5148.189941	2302.955322	32.674454
905.620667	919.797546	5091.885254	2271.572266	32.400436
905.919556	919.797546	5047.579590	2277.110596	32.882378
906.218323	930.412415	5093.730957	2239.266113	31.437754
906.517090	913.797852	5015.735352	2224.959473	31.964447
906.815796	929.027832	5013.427246	2196.345703	31.028255
907.114319	913.336304	5067.886230	2146.963379	29.693399
907.412903	927.643372	5033.272461	2144.194580	29.631302
907.711426	940.565735	5016.196777	2096.658691	28.365988
908.009888	930.873901	5042.964355	2092.966309	28.260382
908.308350	918.412964	4964.968750	2120.657227	29.710310
908.606628	932.719910	4979.737305	2083.274658	28.429695
908.904968	935.950562	4965.891602	2060.660400	27.908842
909.203125	895.337402	4915.586914	2007.586182	27.666162
909.501343	921.643677	4910.510254	2048.199707	28.242508
909.799438	898.567993	4957.584473	2018.662720	27.595224
910.097473	930.412415	4904.972168	2033.431274	27.751974
910.395508	941.027222	4888.818848	1996.510010	26.736032
910.693481	938.719727	4936.354492	2018.201172	27.003004
910.991333	931.335449	4925.739746	2023.739258	27.348354
911.289124	939.642700	4915.586914	2082.351563	28.740564
911.586914	906.413696	4924.355469	2071.736816	29.002985
911.884521	910.105774	4881.895996	2058.814209	28.921680
912.182129	917.028503	4848.206055	2032.046509	28.363462
912.479675	951.641968	4855.127930	2023.739258	27.465126
912.777222	926.720337	4766.517578	2014.970703	28.341349
913.074646	945.642395	4792.823730	1958.204346	26.319578
913.372070	959.487793	4749.903320	1938.820679	25.837086
913.669434	915.182495	4715.289551	1938.359131	26.924944
913.966736	942.873230	4656.215820	1967.434570	27.591349
914.263977	932.720032	4680.214355	1966.050049	27.573893
914.561096	916.567017	4618.833008	1970.203735	28.459238
914.858215	949.334473	4582.834961	1948.051025	27.486347
915.155334	934.104492	4632.678711	1883.900391	25.680056
915.452271	929.489441	4567.143555	1908.822266	26.922098
915.749207	921.643677	4618.833008	1851.594482	25.152912
916.046082	936.873657	4534.837402	1895.438232	26.641863
916.342773	941.027161	4502.531250	1865.439819	25.955681
916.639526	937.796570	4490.070801	1911.129883	27.400288
916.936279	904.567688	4444.842285	1895.899780	28.001558
917.232849	925.797241	4424.074219	1883.439087	27.374672
917.529480	909.182739	4447.149902	1869.132080	27.132793
917.825989	935.027527	4421.766602	1807.289307	25.016550
918.122375	944.719360	4370.538086	1858.517212	26.673853
918.418762	926.258789	4369.153320	1833.134033	26.340488
918.715149	908.721313	4325.771484	1863.593750	27.944347
919.011475	950.257507	4282.850586	1829.441772	26.381388
919.307678	941.027222	4334.540527	1828.057373	26.138992
919.603821	904.567688	4293.927246	1879.285522	28.758171
919.899902	948.411438	4269.005371	1882.054443	28.116747
920.195984	932.720032	4271.774414	1860.363281	27.781614
920.491943	942.873230	4167.471680	1858.517334	28.395601
920.787842	925.797241	4176.241211	1887.592773	29.589668
921.083618	917.490051	4150.395996	1861.747803	29.207708
921.379395	930.873901	4090.860840	1840.979736	28.800938
921.675171	949.334473	4097.321777	1798.058960	26.960861
921.970825	910.105835	4066.862061	1817.903931	28.757307
922.266479	915.643921	4065.938965	1809.596680	28.376797
922.562073	911.028809	4035.017578	1815.135010	28.940763
922.857544	917.490051	3972.713379	1800.366455	28.897278
923.153015	936.873657	3936.715332	1810.981201	29.138454
923.448425	946.565430	3885.487061	1780.521240	28.376251
923.743713	964.102905	3849.027832	1732.985596	26.651741
924.039063	919.797668	3897.947998	1757.445679	28.126451
924.334229	906.413696	3875.333496	1678.988281	26.022076
924.629333	935.950562	3775.646973	1719.140015	27.580044
924.924500	925.335754	3819.951904	1688.218506	26.355230
925.219482	933.642944	3791.800049	1665.142944	25.593414
925.514343	937.335083	3765.493408	1659.604736	25.538517
925.809265	917.028503	3725.803223	1653.143311	26.207685
926.104126	932.258423	3690.266357	1651.297485	26.070959
926.398865	926.258789	3660.268311	1632.836914	25.844027
926.693604	916.567017	3698.112549	1628.683350	25.601463
926.988342	929.489380	3609.040283	1637.913452	26.438166
927.282959	938.258179	3639.961670	1592.685059	24.222750
927.577454	935.027527	3574.426514	1606.530518	25.441511
927.872009	931.335449	3538.889893	1548.379639	23.663713
928.166443	934.566040	3560.119629	1540.995483	23.097202
928.460815	934.566040	3442.433594	1540.995483	24.181078
928.755127	925.335754	3538.889893	1509.612549	22.355640
929.049377	928.566284	3428.588379	1487.459839	22.355545
929.343567	929.950867	3422.588623	1464.845703	21.458988
929.637695	921.182129	3459.509277	1415.463623	19.472727
929.931763	944.257813	3381.052246	1377.157959	17.765148
930.225647	909.182739	3347.823486	1364.697266	18.679035
930.519653	904.567566	3307.209717	1348.082764	18.459478
930.813538	937.796570	3333.516357	1342.544556	16.894630
931.107361	927.643372	3272.134766	1340.236938	17.598425
931.401123	948.411438	3195.984863	1308.853882	16.036959
931.694824	917.028503	3241.675049	1283.932251	15.783206
931.988525	913.797852	3176.601074	1241.472900	14.480934
932.282104	950.257507	3152.141113	1217.474243	12.135825
932.575623	897.644897	3159.986816	1204.090210	13.545491
932.869141	933.181519	3142.910889	1179.629883	11.152875
933.162537	912.874878	3142.910889	1160.246338	11.092710
933.455872	907.798218	3158.602539	1129.786377	9.862616
933.749207	909.644348	3085.683105	1113.633423	9.374331
934.042419	921.643677	3085.683105	1115.479492	8.957129
934.335632	952.565063	3023.840332	1112.248901	7.709445
934.628601	899.952454	3018.302246	1085.019775	8.736391
934.921631	902.260071	3024.301758	1097.019043	9.177905
935.214661	937.335144	3014.148438	1086.865601	7.199996
935.507629	925.335754	3043.223877	1089.173218	7.735888
935.800476	923.951172	2984.611816	1069.328125	7.054871
936.093323	935.027527	2975.843018	1075.789307	6.897330
936.386047	892.106750	2997.533936	1086.865601	9.250324
936.678711	883.799500	2944.459961	1089.634766	9.988801
936.971375	926.720337	2922.768555	1049.483032	6.150287
937.263977	937.796570	2931.537598	1056.867432	5.972233
937.556519	929.489380	2926.922363	1063.328369	6.700550
937.848938	914.259399	2901.539063	1057.790283	7.222480
938.141357	932.258484	2910.307861	1061.482422	6.532897
938.433655	923.028198	2914.922852	1074.866455	7.622806
938.725952	921.182129	2871.079346	1074.866333	7.881657
939.018188	933.181458	2907.538574	1080.865967	7.480131
939.310181	924.412720	2834.158203	1120.556152	10.270658
939.602295	929.027954	2891.847168	1134.401611	10.463198
939.894287	920.720581	2880.770996	1098.403564	9.065226
940.186279	929.489380	2869.233154	1128.863525	10.278376
940.478210	942.411743	2819.851074	1109.941528	8.923313
940.770081	905.952148	2787.083496	1111.787476	10.942102
941.061890	926.258789	2794.929199	1099.326538	9.261545
941.353577	918.874634	2790.313965	1129.786499	11.270035
941.645264	918.874512	2826.773926	1098.403564	9.409776
941.936829	938.258118	2732.624756	1105.326294	9.310704
942.228394	922.566711	2698.472900	1077.173828	8.705815
942.519897	949.334473	2753.854492	1091.942261	7.902810
942.811340	906.875183	2716.471924	1060.097900	8.467230
943.102722	935.950562	2667.551270	1051.329102	6.663115
943.393982	929.027954	2668.012939	1037.483643	6.236724
943.685242	939.181152	2678.166260	1053.636719	6.581745
943.976379	916.567017	2633.860840	1041.175781	7.256112
944.267456	914.720886	2623.707520	1016.715515	5.968135
944.558472	904.567566	2645.860352	1021.330688	6.705543
944.849548	949.796021	2630.168701	981.640442	1.895081
945.140442	944.257813	2620.015625	1030.099365	5.122551
945.431396	935.950562	2606.631592	1014.869507	4.723759
945.722168	937.796692	2590.940186	1019.023132	4.913454
946.012939	911.028809	2607.093018	1017.638550	6.285714
946.303650	925.335754	2520.328613	987.178528	3.877307
946.594299	915.643921	2561.403076	1037.022217	7.375216
946.884888	898.567871	2542.480957	1012.561890	6.934309
947.175354	947.949890	2590.939941	980.717407	1.994383
947.465881	937.335144	2535.558105	993.178345	3.494081
947.756287	914.720886	2473.715576	987.178589	4.647720
948.046631	887.030090	2488.483887	989.486206	6.397694
948.336792	936.873657	2512.020996	996.870422	3.808962
948.627014	913.336426	2493.560791	973.794739	3.825932
948.917114	911.490356	2476.484863	1012.561829	6.458264
949.207214	929.027954	2428.948730	983.948059	3.661534
949.497253	916.105591	2467.254395	960.872375	2.886041
949.787231	930.412415	2437.255859	933.181458	0.183764
950.077148	939.181274	2453.870605	967.795105	1.889089
950.367004	935.489075	2401.257813	974.717773	2.676322
950.656799	929.489380	2417.872070	960.410767	2.077516
950.946472	928.104858	2408.642090	993.178345	4.395262
951.236145	890.722290	2408.180420	951.180542	3.984179
951.525818	911.951843	2380.951172	972.871765	4.147036
951.815369	937.796692	2371.720947	936.873657	-0.064371
952.104858	937.335144	2359.260010	952.103516	1.038618
952.394287	940.104187	2330.184570	952.565063	0.896414
952.683655	941.027222	2290.032715	934.104492	-0.513173
952.972839	921.182007	2316.800781	939.642700	1.322760
953.262085	939.181152	2310.339355	929.027832	-0.740492
953.551208	936.873657	2274.803223	902.721558	-2.552608
953.840332	924.874207	2289.571533	942.411804	1.285091
954.129395	926.720337	2242.496826	927.643250	0.070142
954.418396	928.566284	2239.266113	924.874207	-0.281687
954.707336	933.181458	2238.343262	914.720886	-1.414428
954.996277	917.951538	2241.573975	940.565735	1.708508
955.285095	952.103516	2246.650879	917.028503	-2.709442
955.573792	911.951843	2206.498779	930.873901	1.461674
955.862488	907.336731	2222.651855	897.183411	-0.771931
956.151123	916.105469	2218.498291	892.106750	-1.842664
956.439697	913.797852	2174.192871	921.182129	0.585870
956.728210	932.719910	2228.651611	898.106445	-2.670933
957.016663	923.028198	2158.962891	911.028809	-0.970876
957.304932	933.642944	2152.501709	911.490356	-1.817486
957.593262	941.027161	2200.960449	909.182800	-2.527464
957.881531	911.028809	2150.194092	920.259094	0.744879
958.169739	915.182434	2126.195557	929.950867	1.219510
958.457886	932.719910	2107.273193	896.721863	-3.064829
958.745911	916.567017	2091.120361	882.876465	-2.868371
959.033997	914.720886	2105.427246	899.490906	-1.279071
959.321960	920.720581	2099.889160	939.181152	1.565558
959.609802	928.566284	2056.506836	877.799805	-4.500812
959.897644	952.565063	2059.737549	897.183411	-5.002080
960.185486	912.874817	2041.276733	886.568542	-2.331286
960.473145	928.566406	2068.967773	873.646179	-4.815868
960.760803	905.029114	2055.122314	897.644897	-0.642054
961.048401	925.335754	2019.585693	887.491577	-3.458458
961.335938	889.337708	2017.278076	882.876465	-0.572835
961.623352	893.952759	2011.739868	859.800781	-3.055321
961.910645	928.566284	2027.892822	877.799805	-4.617962
962.198059	926.720337	2005.740234	876.876770	-4.619337
962.485291	929.027954	1977.587891	899.490906	-2.816916
962.772583	911.951843	1975.280029	876.415222	-3.342018
963.059692	928.566284	1961.434937	863.031372	-6.344942
963.346802	926.258789	1990.048828	878.722839	-4.468546
963.633850	923.028198	1937.897705	864.877441	-5.729875
963.920837	949.334473	1900.053467	899.029480	-5.291258
964.207764	923.951294	1920.360107	865.338867	-5.882367
964.494629	927.643372	1905.591797	867.646484	-6.134974
964.781433	946.565308	1914.822021	897.644897	-5.052422
965.068115	934.104492	1886.208252	887.491577	-4.895781
965.354797	938.258179	1879.285522	854.724121	-8.876900
965.641418	917.951538	1897.746094	885.184082	-3.344319
965.927979	934.104614	1862.209351	896.260376	-4.077583
966.214417	916.105469	1864.055298	862.108276	-5.696208
966.500732	945.642395	1890.361694	881.492004	-6.790418
966.787109	924.412720	1865.439819	875.953796	-5.149578
967.073364	947.026855	1886.669556	879.184387	-7.220028
967.359619	945.642395	1849.287109	870.877136	-8.273745
967.645813	927.643372	1815.596436	868.108032	-6.704784
967.931946	911.951843	1835.441650	863.492859	-5.247376
968.217957	921.182129	1827.134155	850.570496	-7.794191
968.503967	928.566406	1784.675049	839.494141	-10.404318
968.789917	916.105469	1779.598267	888.414673	-3.206836
969.075745	913.797852	1801.751221	863.492859	-5.665274
969.361572	907.336731	1807.289063	862.569824	-4.974364
969.647339	951.180542	1789.751587	864.877441	-10.291686
969.932983	944.719360	1804.058594	838.571106	-12.352311
970.218628	908.259766	1789.290039	858.416199	-5.657418
970.504211	926.258789	1794.366577	870.415649	-6.432743
970.789551	905.029114	1753.291992	862.569824	-5.005440
971.075012	920.720581	1741.292725	881.491882	-4.780652
971.360413	923.028198	1726.062744	860.262329	-7.816086
971.645691	924.874207	1702.064087	873.646179	-6.591443
971.930908	935.489075	1727.908813	852.878052	-10.425159
972.216125	907.336731	1735.292969	863.492859	-5.295434
972.501221	905.952148	1727.908813	843.186218	-7.636160
972.786316	926.720337	1688.679932	871.800110	-7.207761
973.071350	918.874634	1701.602295	872.723145	-5.896238
973.356262	918.413086	1686.833984	879.645874	-5.045049
973.641113	923.489624	1643.451782	867.646484	-7.756399
973.925964	935.489075	1683.141968	851.032043	-11.296288
974.210693	920.720581	1717.293945	827.033325	-11.761284
974.495361	922.105164	1683.603271	814.110840	-14.181825
974.780029	901.798523	1612.991699	851.032043	-7.138212
975.064575	912.874817	1612.068726	882.876465	-4.290420
975.348999	941.027222	1639.759521	840.417175	-14.398940
975.633423	897.644897	1649.912842	848.724426	-6.503065
975.917786	940.104187	1635.606079	836.724976	-14.863973
976.202087	932.719910	1602.838501	828.417786	-15.564726
976.486328	897.183411	1598.223267	867.184937	-4.279140
976.770569	905.490601	1580.224243	867.184937	-5.677154
977.054688	916.567017	1588.069946	826.571655	-13.402081
977.338745	910.567261	1552.071899	856.108582	-8.489210
977.622742	887.491577	1563.148193	832.571411	-8.128414
977.906677	926.720337	1558.994629	837.648132	-14.087589
978.190552	910.567261	1561.302124	830.263855	-12.340419
978.474426	920.720581	1576.531982	847.339966	-11.189286
978.758179	934.566040	1553.456421	852.878052	-13.199104
979.041870	926.258789	1546.072144	809.034241	-18.912878
979.325500	929.027832	1499.459229	847.339844	-14.320388
979.608948	908.721313	1552.071777	827.956360	-12.553803
979.892456	927.643372	1524.842529	792.419739	-22.642971
980.175903	917.028503	1546.072266	830.725281	-13.719748
980.459290	919.336060	1530.380615	838.571106	-13.217523
980.742615	904.106079	1519.765869	820.572083	-13.568208
981.025879	929.489380	1507.305054	824.725586	-18.131006
981.309082	927.181824	1488.844482	811.341736	-20.624495
981.592224	931.796997	1538.687988	821.495117	-18.174908
981.875305	908.721191	1514.689209	816.879944	-15.156121
982.158264	950.718933	1483.767822	809.957214	-26.406906
982.441223	920.720581	1438.539429	813.649292	-20.677364
982.724121	917.490051	1468.537842	818.726013	-17.922953
983.006958	917.028503	1424.232422	814.110840	-20.291182
983.289734	917.028503	1474.537476	812.264832	-18.791388
983.572388	941.488770	1478.691162	833.494446	-20.103098
983.855042	934.566040	1464.845703	841.801758	-17.493464
984.137451	923.028137	1432.539795	825.187195	-19.202887
984.419983	907.336731	1434.385864	824.725708	-15.674254
984.702454	911.951782	1405.310425	843.647766	-13.844698
984.984863	940.565735	1437.616455	840.878723	-20.055702
985.267151	953.026672	1418.694214	819.187500	-28.741358
985.549438	938.719604	1421.925049	815.495422	-25.501406
985.831604	954.872681	1408.541016	810.418762	-31.841305
986.113708	953.026550	1398.387695	840.417175	-25.284958
986.395813	949.334473	1372.081299	830.263855	-28.165939
986.677856	915.182434	1377.619507	812.264771	-22.255495
986.959778	917.951538	1355.005249	810.880249	-24.498428
987.241699	939.642700	1374.850464	806.726685	-30.540819
987.523499	925.335754	1355.928467	794.265747	-30.439440
987.805237	927.643372	1359.158936	811.803345	-26.844925
988.086914	899.029480	1348.082642	831.648315	-15.005164
988.368469	923.028198	1331.929688	827.956360	-23.250547
988.650024	900.414063	1326.391602	813.649292	-20.368391
988.931580	914.720886	1347.621094	829.340820	-19.722805
989.213013	902.721497	1332.852783	825.648743	-17.918425
989.494385	944.719360	1336.083374	804.419067	-35.849052
989.775696	926.258789	1326.391357	810.418762	-28.950413
990.056946	942.873230	1340.698486	806.265076	-34.338734
990.338135	925.335754	1291.777954	788.266052	-37.405544
990.619263	941.027161	1356.851318	793.342712	-35.516083
990.900330	910.567261	1299.162109	837.648071	-18.764837
991.181335	910.105774	1322.699463	815.033875	-23.042500
991.462280	937.335083	1320.391846	801.649963	-35.421673
991.743164	910.105774	1291.316406	825.187195	-22.276026
992.023987	892.568237	1294.085571	776.266724	-28.965502
992.304749	907.336731	1282.547607	811.803345	-25.461252
992.585388	905.029114	1300.085205	804.880554	-25.350466
992.865967	913.797852	1295.008545	804.880554	-28.571417
993.146484	917.951538	1293.624023	815.956909	-27.149879
993.427002	914.720886	1314.392212	792.881226	-30.484964
993.707458	917.028503	1274.240356	821.033569	-26.873390
993.987793	911.490356	1268.240723	793.804199	-32.988377
994.268127	900.413940	1255.779907	785.497009	-32.337631
994.548340	959.487793	1272.394287	781.804871	-56.784672
994.828552	932.258423	1256.702881	775.805237	-48.221870
995.108704	907.336731	1272.394287	791.496643	-31.732006
995.388733	930.412415	1257.625977	804.419067	-38.504929
995.668762	916.105469	1249.318726	797.034790	-35.734077
995.948669	913.336426	1269.625244	791.035095	-34.326458
996.228577	911.490356	1217.474121	803.495972	-35.294155
996.508362	932.258423	1252.549194	809.957214	-38.184429
996.788147	926.258789	1193.475342	819.649048	-39.896385
997.067810	923.489624	1232.242676	796.111816	-41.255562
997.347290	939.642700	1222.089233	779.958801	-56.535973
997.626831	909.644226	1221.166260	768.420959	-45.333317
997.906311	944.257813	1207.320923	818.264526	-47.894699
998.185730	934.104614	1206.859375	812.726318	-44.500889
998.465088	938.258118	1188.398804	770.266968	-67.158669
998.744446	911.951843	1183.783569	785.496948	-46.519550
999.023682	899.029480	1191.167969	800.265442	-33.807266
999.302856	916.105469	1183.783569	805.342102	-41.379314
999.581970	933.642944	1161.631104	762.882813	-74.898682
999.860962	907.798218	1217.935791	804.419067	-33.333321
1000.140015	926.258789	1238.703857	790.112183	-43.574574
1000.418884	931.796997	1175.014893	817.802917	-46.869118
1000.697815	941.027222	1193.013916	797.496338	-56.959709
1000.976563	911.951843	1180.552979	781.343384	-48.625431
1001.255310	903.644653	1171.784302	759.652222	-53.700539
1001.533813	911.951843	1166.707642	805.342102	-41.847816
1001.812439	932.719910	1151.016113	765.651917	-76.532707
1002.091003	928.104858	1182.860596	771.190063	-61.594215
1002.369446	942.873230	1185.629639	794.727234	-61.026604
1002.647888	899.029480	1164.861572	770.728577	-48.263889
1002.926270	980.717468	1193.936890	854.724121	-59.090935
1003.204529	927.643250	1143.170410	806.265076	-56.316879
1003.482727	913.797852	1143.170288	810.418762	-45.070408
1003.760864	937.796692	1092.865479	786.419922	-97.619110
1004.039001	935.489075	1157.938843	759.652222	-79.045647
1004.317017	924.412720	1144.093506	796.573303	-58.193264
1004.595032	950.257507	1143.631958	763.344360	-96.658653
1004.872925	915.643921	1117.787109	763.805786	-75.114151
1005.150696	957.641724	1100.249634	787.804565	-119.093788
1005.428528	948.873047	1111.325928	748.114380	-123.579628
1005.706238	944.719360	1115.479492	747.652832	-115.405464
1005.983765	972.410156	1090.096313	779.035767	-164.313629
1006.261292	930.873901	1074.866333	780.881836	-104.166634
1006.538940	953.949585	1089.634766	778.574219	-129.251678
1006.816406	932.720032	1091.019287	800.265442	-83.673538
1007.093689	925.797241	1084.558105	800.265503	-79.069702
1007.371094	903.644653	1086.404175	758.267700	-79.545486
1007.648376	901.337036	1105.326294	791.958130	-53.619934
1007.925598	916.567017	1076.250854	773.497620	-89.595413
1008.202637	929.950867	1077.635498	757.806091	-116.562416
1008.479797	934.566040	1104.403198	767.959412	-98.097870
1008.756836	924.412720	1104.403076	779.497375	-80.512840
1009.033691	929.027832	1094.711426	788.727600	-84.679619
1009.310669	923.489746	1069.789673	784.112427	-95.268211
1009.587463	910.567383	1091.019287	786.420044	-68.798019
1009.864258	922.105164	1096.557495	768.882446	-87.830711
1010.140747	914.259399	1068.866577	767.036438	-95.223885
1010.417480	922.566711	1109.941406	777.189758	-77.586227
1010.694031	922.105164	1095.172974	782.266418	-80.799973
1010.970459	914.259399	1047.636963	794.727234	-89.619392
1011.246948	956.718628	1016.715515	804.419067	-253.845764
1011.523315	928.104858	1062.405518	759.190735	-125.773117
1011.799622	941.950317	1066.097534	761.036743	-145.725037
1012.075806	913.797852	1049.944580	777.189819	-100.338829
1012.352112	922.566589	1061.943970	773.497620	-106.953491
1012.628235	912.874878	1070.712646	736.114929	-111.988373
1012.904175	909.644226	1023.176758	768.882507	-123.983597
1013.180237	893.029663	1011.177368	789.650635	-87.499817
1013.456177	975.179321	1057.790283	777.189758	-239.665009
1013.732056	930.412415	1023.638306	764.267273	-178.217804
1014.007751	899.029480	1023.638306	785.035522	-91.481445
1014.283569	927.643372	1025.484253	767.959473	-163.207748
1014.559143	902.721558	1013.946472	774.420593	-115.352722
1014.834656	923.489624	1036.560669	752.729492	-151.020218
1015.110291	938.258179	1040.714233	777.189758	-157.207321
1015.385742	937.796692	1034.714600	760.113708	-183.333496
1015.661194	912.874817	1039.791260	762.421265	-118.545357
1015.936462	932.258423	1037.022217	774.882202	-150.220047
1016.211853	950.257507	1007.485229	768.882446	-316.935669
1016.487061	959.026245	1040.252686	775.805176	-225.568268
1016.762146	930.873901	1016.254028	782.266418	-174.053955
1017.037292	911.028809	1027.791870	750.421936	-137.549377
1017.312317	901.337036	1031.945557	756.421570	-110.954071
>>>>>End Processed Spectral Data<<<<<
